File: dataset/pixel4a.txt
voltage(V), current(mA), battery_percent, battery_temperature(Celsius), remaining_battery_charge(mAh), battery_capacity(mAh), battery_technology
3.768,-2725.832,1,32.5,153.85,3080,Unknown
3.809,-2986.147,1,32.6,184.62,3080,Unknown
3.851,-2994.997,2,34.3,184.62,3080,Unknown
3.917,-2991.335,2,35.8,215.39,3080,Unknown
3.954,-2992.555,3,36.5,215.39,3080,Unknown
3.991,-2997.438,5,37.3,276.93,3080,Unknown
3.997,-2993.471,7,37.8,307.7,3080,Unknown
4.007,-2980.959,9,38.4,369.24,3080,Unknown
4.015,-2999.574,10,38.9,400.01,3080,Unknown
4.026,-2997.743,12,39.3,461.55,3080,Unknown
4.038,-2994.692,14,39.7,523.09,3080,Unknown
4.052,-2999.574,17,40.1,615.4,3080,Unknown
4.059,-3000.185,18,40.4,646.17,3080,Unknown
4.071,-2996.217,21,40.8,707.71,3080,Unknown
4.027,-2389.222,22,41,738.48,3080,Unknown
4.024,-2390.443,22,40.4,738.48,3080,Unknown
4.024,-2394.41,23,39.8,769.25,3080,Unknown
4.027,-2391.969,24,39.6,769.25,3080,Unknown
4.031,-2389.528,24,39.4,800.02,3080,Unknown
4.035,-2396.547,25,39.2,830.79,3080,Unknown
4.04,-2391.664,26,39,861.56,3080,Unknown
4.045,-2394.105,28,39,892.33,3080,Unknown
4.048,-2312.623,28,39,923.1,3080,Unknown
4.048,-2255.86,29,39,923.1,3080,Unknown
4.048,-2296.449,29,39,923.1,3080,Unknown
4.015,-1934.51,29,39.3,953.87,3080,Unknown
4.009,-1940.614,30,38.9,953.87,3080,Unknown
4.05,-2393.8,31,39.1,984.64,3080,Unknown
4.061,-2391.664,33,39.6,1046.18,3080,Unknown
4.066,-2395.631,34,39.6,1076.95,3080,Unknown
4.066,-2393.19,34,39.6,1076.95,3080,Unknown
4.074,-2393.8,36,39.5,1107.72,3080,Unknown
4.076,-2395.021,36,39.5,1138.49,3080,Unknown
4.083,-2394.41,38,39.4,1169.26,3080,Unknown
4.087,-2389.833,39,39.4,1200.03,3080,Unknown
4.093,-2391.359,40,39.4,1230.8,3080,Unknown
4.098,-2396.547,41,39.4,1261.57,3080,Unknown
4.104,-2392.274,42,39.4,1292.34,3080,Unknown
4.11,-2392.885,43,39.4,1323.11,3080,Unknown
4.118,-2397.462,45,39.5,1353.88,3080,Unknown
4.12,-2392.885,45,39.5,1384.65,3080,Unknown
4.126,-2390.138,46,39.5,1415.42,3080,Unknown
4.129,-2393.8,47,39.5,1415.42,3080,Unknown
4.137,-2397.767,48,39.6,1476.96,3080,Unknown
4.146,-2394.105,50,39.6,1507.73,3080,Unknown
4.154,-2397.767,51,39.6,1538.5,3080,Unknown
4.161,-2399.598,52,39.6,1569.27,3080,Unknown
4.169,-2394.105,53,39.7,1600.04,3080,Unknown
4.175,-2390.138,54,39.7,1630.81,3080,Unknown
4.185,-2394.105,56,39.7,1661.58,3080,Unknown
4.193,-2391.969,57,39.7,1723.12,3080,Unknown
4.203,-2394.105,58,39.8,1753.89,3080,Unknown
4.209,-2390.443,59,39.8,1753.89,3080,Unknown
4.212,-2393.8,59,39.8,1784.66,3080,Unknown
4.224,-2398.073,61,40,1815.43,3080,Unknown
4.242,-2394.105,63,40.1,1876.97,3080,Unknown
4.249,-2396.852,64,40.1,1907.74,3080,Unknown
4.252,-2397.462,64,40.1,1907.74,3080,Unknown
4.253,-2393.19,65,40.1,1907.74,3080,Unknown
4.254,-2349.855,65,40.1,1938.51,3080,Unknown
4.255,-2312.928,65,40.1,1938.51,3080,Unknown
4.254,-2275.087,66,40,1938.51,3080,Unknown
4.252,-2255.86,66,39.9,1969.28,3080,Unknown
4.23,-1940.309,66,39.8,1969.28,3080,Unknown
4.23,-1938.477,67,39.5,1969.28,3080,Unknown
4.24,-1940.614,68,39.3,2030.82,3080,Unknown
4.243,-1942.445,68,39.2,2030.82,3080,Unknown
4.247,-1940.309,69,39.2,2030.82,3080,Unknown
4.253,-2093.812,69,39.2,2061.59,3080,Unknown
4.277,-2093.812,70,39.3,2092.36,3080,Unknown
4.284,-2096.253,71,39.2,2092.36,3080,Unknown
4.292,-2094.728,71,39.2,2123.13,3080,Unknown
4.3,-2082.521,72,39.2,2123.13,3080,Unknown
4.301,-2088.014,72,39.1,2153.9,3080,Unknown
4.314,-2095.338,73,39.2,2184.67,3080,Unknown
4.324,-2096.559,74,39.2,2184.67,3080,Unknown
4.339,-2090.76,75,39.1,2215.44,3080,Unknown
4.342,-2092.286,76,39.1,2246.21,3080,Unknown
4.346,-2092.286,76,39.1,2246.21,3080,Unknown
4.349,-2080.689,76,39.1,2246.21,3080,Unknown
4.349,-2035.218,77,39,2276.98,3080,Unknown
4.347,-1991.578,77,39,2276.98,3080,Unknown
4.348,-1953.431,77,38.9,2276.98,3080,Unknown
4.347,-1922.913,77,38.9,2276.98,3080,Unknown
4.346,-1889.954,77,38.8,2307.75,3080,Unknown
4.347,-1856.385,78,38.7,2307.75,3080,Unknown
4.345,-1819.154,78,38.7,2307.75,3080,Unknown
4.344,-1788.331,78,38.5,2307.75,3080,Unknown
4.343,-1752.015,79,38.4,2338.52,3080,Unknown
4.343,-1721.802,79,38.4,2338.52,3080,Unknown
4.342,-1691.285,79,38.3,2338.52,3080,Unknown
4.343,-1656.8,79,38.2,2338.52,3080,Unknown
4.342,-1628.419,79,38.1,2338.52,3080,Unknown
4.341,-1602.784,80,38.1,2369.29,3080,Unknown
4.341,-1577.149,80,38,2369.29,3080,Unknown
4.34,-1546.937,80,37.9,2369.29,3080,Unknown
4.337,-1487.122,80,37.8,2369.29,3080,Unknown
4.337,-1485.291,80,37.7,2369.29,3080,Unknown
4.339,-1486.512,80,37.6,2369.29,3080,Unknown
4.342,-1484.681,81,37.5,2400.06,3080,Unknown
4.344,-1486.207,81,37.5,2400.06,3080,Unknown
4.347,-1485.596,81,37.4,2400.06,3080,Unknown
4.349,-1486.817,81,37.4,2400.06,3080,Unknown
4.352,-1486.817,82,37.3,2400.06,3080,Unknown
4.353,-1485.901,82,37.3,2430.83,3080,Unknown
4.355,-1486.817,82,37.2,2430.83,3080,Unknown
4.358,-1485.901,82,37.2,2430.83,3080,Unknown
4.361,-1486.207,82,37.2,2430.83,3080,Unknown
4.362,-1487.122,82,37.1,2430.83,3080,Unknown
4.365,-1486.512,83,37.1,2430.83,3080,Unknown
4.367,-1486.207,83,37.1,2461.6,3080,Unknown
4.369,-1486.207,83,37,2461.6,3080,Unknown
4.376,-1485.596,83,36.9,2461.6,3080,Unknown
4.384,-1486.512,84,36.8,2492.37,3080,Unknown
4.392,-1484.07,85,36.7,2492.37,3080,Unknown
4.394,-1484.07,85,36.7,2523.14,3080,Unknown
4.396,-1485.901,85,36.6,2523.14,3080,Unknown
4.399,-1486.207,85,36.6,2523.14,3080,Unknown
4.402,-1487.122,85,36.6,2523.14,3080,Unknown
4.404,-1485.596,86,36.6,2523.14,3080,Unknown
4.407,-1485.291,86,36.5,2523.14,3080,Unknown
4.409,-1487.122,86,36.5,2553.91,3080,Unknown
4.414,-1486.817,86,36.5,2553.91,3080,Unknown
4.419,-1485.596,87,36.5,2553.91,3080,Unknown
4.427,-1484.681,87,36.4,2584.68,3080,Unknown
4.436,-1485.596,88,36.4,2615.45,3080,Unknown
4.44,-1485.291,88,36.3,2615.45,3080,Unknown
4.449,-1484.07,89,36.3,2646.22,3080,Unknown
4.452,-1487.122,89,36.3,2646.22,3080,Unknown
4.454,-1487.122,89,36.3,2646.22,3080,Unknown
4.456,-1485.596,90,36.3,2646.22,3080,Unknown
4.457,-1468.506,90,36.2,2646.22,3080,Unknown
4.458,-1443.177,90,36.2,2646.22,3080,Unknown
4.458,-1413.575,90,36.2,2676.99,3080,Unknown
4.456,-1393.128,90,36.2,2676.99,3080,Unknown
4.456,-1381.226,91,36.1,2676.99,3080,Unknown
4.456,-1346.741,91,36.1,2676.99,3080,Unknown
4.456,-1328.736,91,36.1,2676.99,3080,Unknown
4.455,-1306.153,91,36,2676.99,3080,Unknown
4.455,-1285.096,91,36,2707.76,3080,Unknown
4.455,-1271.668,91,36,2707.76,3080,Unknown
4.455,-1248.169,91,35.9,2707.76,3080,Unknown
4.454,-1234.131,92,35.9,2707.76,3080,Unknown
4.453,-1213.379,92,35.9,2707.76,3080,Unknown
4.453,-1196.595,92,35.8,2707.76,3080,Unknown
4.453,-1175.232,92,35.8,2707.76,3080,Unknown
4.452,-1157.532,92,35.7,2738.53,3080,Unknown
4.452,-1139.222,92,35.7,2738.53,3080,Unknown
4.451,-1120.606,92,35.6,2738.53,3080,Unknown
4.451,-1109.619,93,35.6,2738.53,3080,Unknown
4.451,-1098.023,93,35.6,2738.53,3080,Unknown
4.45,-1080.628,93,35.5,2738.53,3080,Unknown
4.448,-1030.274,93,35.5,2738.53,3080,Unknown
4.449,-1027.222,93,35.5,2769.3,3080,Unknown
4.449,-1030.274,93,35.4,2769.3,3080,Unknown
4.45,-1029.053,93,35.4,2769.3,3080,Unknown
4.453,-1029.053,93,35.3,2769.3,3080,Unknown
4.452,-1029.663,94,35.3,2769.3,3080,Unknown
4.455,-1029.969,94,35.3,2769.3,3080,Unknown
4.456,-1030.579,94,35.3,2769.3,3080,Unknown
4.459,-1028.748,94,35.2,2800.07,3080,Unknown
4.46,-1029.969,94,35.2,2800.07,3080,Unknown
4.46,-1017.151,94,35.2,2800.07,3080,Unknown
4.46,-1001.892,94,35.1,2800.07,3080,Unknown
4.46,-985.108,94,35.1,2800.07,3080,Unknown
4.459,-974.426,95,35.1,2800.07,3080,Unknown
4.459,-956.726,95,35.1,2800.07,3080,Unknown
4.457,-940.857,95,35,2800.07,3080,Unknown
4.458,-929.871,95,35,2800.07,3080,Unknown
4.458,-916.138,95,35,2830.84,3080,Unknown
4.458,-907.898,95,34.9,2830.84,3080,Unknown
4.458,-885.925,95,34.9,2830.84,3080,Unknown
4.457,-883.484,95,34.9,2830.84,3080,Unknown
4.456,-872.803,95,34.8,2830.84,3080,Unknown
4.457,-859.985,95,34.8,2830.84,3080,Unknown
4.456,-848.084,96,34.8,2830.84,3080,Unknown
4.457,-836.792,96,34.7,2830.84,3080,Unknown
4.456,-814.209,96,34.6,2830.84,3080,Unknown
4.456,-817.566,96,34.5,2861.61,3080,Unknown
4.456,-804.443,96,34.5,2861.61,3080,Unknown
4.456,-795.288,96,34.4,2861.61,3080,Unknown
4.454,-783.691,96,34.4,2861.61,3080,Unknown
4.455,-771.179,96,34.3,2861.61,3080,Unknown
4.455,-761.719,96,34.3,2861.61,3080,Unknown
4.456,-748.596,96,34.2,2861.61,3080,Unknown
4.455,-744.629,96,34.2,2861.61,3080,Unknown
4.449,-671.997,97,34.2,2861.61,3080,Unknown
4.45,-673.218,97,34.1,2861.61,3080,Unknown
4.449,-674.744,97,34.1,2861.61,3080,Unknown
4.45,-671.387,97,34,2892.38,3080,Unknown
4.453,-671.997,97,34,2892.38,3080,Unknown
4.455,-674.744,97,33.9,2892.38,3080,Unknown
4.456,-675.049,98,33.9,2892.38,3080,Unknown
4.457,-673.828,98,33.9,2892.38,3080,Unknown
4.457,-672.302,98,33.8,2892.38,3080,Unknown
4.458,-672.302,98,33.8,2892.38,3080,Unknown
4.458,-672.913,98,33.8,2923.15,3080,Unknown
4.457,-668.03,98,33.8,2923.15,3080,Unknown
4.457,-668.03,98,33.9,2923.15,3080,Unknown
4.46,-672.607,98,33.9,2923.15,3080,Unknown
4.458,-673.523,98,34,2923.15,3080,Unknown
4.459,-679.016,98,34.1,2923.15,3080,Unknown
4.46,-671.387,98,34.2,2923.15,3080,Unknown
4.46,-671.082,98,34.3,2923.15,3080,Unknown
4.46,-671.997,98,34.5,2923.15,3080,Unknown
4.46,-673.828,99,34.6,2923.15,3080,Unknown
4.46,-673.218,99,34.8,2923.15,3080,Unknown
4.462,-664.978,99,34.9,2923.15,3080,Unknown
4.46,-674.438,99,35,2923.15,3080,Unknown
4.461,-674.438,99,35.2,2923.15,3080,Unknown
4.461,-674.744,99,35.4,2953.92,3080,Unknown
4.463,-670.166,99,35.5,2953.92,3080,Unknown
4.464,-669.556,99,35.6,2953.92,3080,Unknown
4.463,-664.062,99,35.7,2953.92,3080,Unknown
4.463,-664.062,99,35.8,2953.92,3080,Unknown
4.463,-655.518,99,35.8,2953.92,3080,Unknown
4.463,-648.193,99,35.9,2953.92,3080,Unknown
4.462,-639.038,99,35.9,2953.92,3080,Unknown
4.462,-630.798,99,35.9,2953.92,3080,Unknown
4.462,-625,99,36,2953.92,3080,Unknown
4.463,-619.202,99,36,2953.92,3080,Unknown
4.463,-606.384,99,36,2953.92,3080,Unknown
4.462,-608.826,99,36,2984.69,3080,Unknown
4.462,-604.553,99,36,2984.69,3080,Unknown
4.463,-600.586,100,36,2984.69,3080,Unknown