File: dataset/pixel_4a-data.csv
timestamp,voltage(V),current(mA),power(W),battery_percent,battery_temperature(Celsius),remaining_battery_charge(mAh),battery_capacity(mAh),battery_technology
2023-04-14 10:44:18.279,3.767,2501,9.4221,1,35.3,61.24,3080,Unknown
2023-04-14 10:44:39.892,3.815,2391,9.12187,2,36.8,61.24,3080,Unknown
2023-04-14 10:46:05.828,3.974,2994,11.8985,4,38.4,122.48,3080,Unknown
2023-04-14 10:47:50.254,3.994,2996,11.9681,7,39.1,214.34,3080,Unknown
2023-04-14 10:48:59.942,4.007,2995,12.0022,10,39.5,275.58,3080,Unknown
2023-04-14 10:50:23.565,4.022,2996,12.0508,12,40.0,336.82,3080,Unknown
2023-04-14 10:51:45.084,3.982,2395,9.53819,14,39.6,398.06,3080,Unknown
2023-04-14 10:53:02.259,3.99,2394,9.55248,16,39.4,459.3,3080,Unknown
2023-04-14 10:54:22.416,4.001,2392,9.57393,18,39.4,520.54,3080,Unknown
2023-04-14 10:56:07.720,4.014,2393,9.60626,21,39.6,581.78,3080,Unknown
2023-04-14 10:58:00.930,4.027,2392,9.63369,23,39.7,643.02,3080,Unknown
2023-04-14 10:59:12.094,4.033,2392,9.64804,25,39.8,704.26,3080,Unknown
2023-04-14 10:59:54.551,4.037,2392,9.66008,26,39.8,734.88,3080,Unknown
2023-04-14 11:01:10.536,4.043,2391,9.6695,28,40.0,765.5,3080,Unknown
2023-04-14 11:01:32.068,4.007,1939,7.76993,28,40.0,796.12,3080,Unknown
2023-04-14 11:03:34.743,4.01,1942,7.79043,31,39.4,857.36,3080,Unknown
2023-04-14 11:05:45.129,4.063,2393,9.72601,34,40.2,949.22,3080,Unknown
2023-04-14 11:08:02.844,4.077,2392,9.75454,37,40.5,1041.08,3080,Unknown
2023-04-14 11:10:09.231,4.089,2395,9.79574,40,40.8,1102.32,3080,Unknown
2023-04-14 11:12:28.021,4.103,2393,9.82176,43,41.0,1194.18,3080,Unknown
2023-04-14 11:14:19.899,4.118,2394,9.86144,46,41.2,1286.04,3080,Unknown
2023-04-14 11:16:24.820,4.093,1939,7.93918,49,40.9,1347.28,3080,Unknown
2023-04-14 11:18:30.113,4.104,1938,7.95677,51,40.6,1408.52,3080,Unknown
2023-04-14 11:20:10.366,4.116,278,1.14557,53,40.5,1469.76,3080,Unknown
2023-04-14 11:20:47.205,4.119,1936,7.97704,54,40.5,1500.38,3080,Unknown
2023-04-14 11:21:08.682,4.083,1430,5.84016,54,40.7,1500.38,3080,Unknown
2023-04-14 11:21:30.166,4.079,1431,5.84066,55,40.2,1500.38,3080,Unknown
2023-04-14 11:21:51.622,4.079,1428,5.82697,55,40.0,1531.0,3080,Unknown
2023-04-14 11:22:13.087,4.079,1430,5.83443,55,40.1,1531.0,3080,Unknown
2023-04-14 11:22:34.531,4.081,1432,5.84602,56,40.1,1531.0,3080,Unknown
2023-04-14 11:22:55.971,4.083,1430,5.83891,56,40.1,1561.62,3080,Unknown
2023-04-14 11:23:17.420,4.084,1432,5.84906,56,40.1,1561.62,3080,Unknown
2023-04-14 11:23:38.854,4.086,1434,5.85941,57,40.1,1561.62,3080,Unknown
2023-04-14 11:24:00.308,4.087,1432,5.85586,57,40.2,1561.62,3080,Unknown
2023-04-14 11:24:34.314,4.092,1434,5.86927,57,40.2,1592.24,3080,Unknown
2023-04-14 11:26:01.718,4.098,1434,5.87787,58,40.3,1622.86,3080,Unknown
2023-04-14 11:27:42.156,4.163,1942,8.08767,60,41.0,1684.1,3080,Unknown
2023-04-14 11:29:17.729,4.179,1941,8.11238,62,41.0,1714.72,3080,Unknown
2023-04-14 11:30:37.591,4.189,278,1.1646,63,41.0,1775.96,3080,Unknown
2023-04-14 11:31:39.148,4.2,1938,8.14032,64,41.0,1806.58,3080,Unknown
2023-04-14 11:32:00.867,4.12,925,3.81221,65,41.1,1806.58,3080,Unknown
2023-04-14 11:32:33.065,4.112,925,3.80731,65,40.3,1806.58,3080,Unknown
2023-04-14 11:33:26.515,4.113,925,3.80573,66,40.2,1837.2,3080,Unknown
2023-04-14 11:33:48.021,4.114,927,3.81544,66,40.2,1837.2,3080,Unknown
2023-04-14 11:34:11.494,4.116,926,3.81479,66,40.2,1837.2,3080,Unknown
2023-04-14 11:35:01.758,4.121,924,3.81188,67,40.2,1867.82,3080,Unknown
2023-04-14 11:35:23.253,4.164,1432,5.96364,67,40.2,1867.82,3080,Unknown
2023-04-14 11:35:53.918,4.131,927,3.83121,67,40.5,1867.82,3080,Unknown
2023-04-14 11:36:34.194,4.175,1433,5.98449,68,40.3,1898.44,3080,Unknown
2023-04-14 11:37:34.025,4.23,1939,8.20363,68,40.6,1898.44,3080,Unknown
2023-04-14 11:38:16.845,4.244,1942,8.24374,69,41.0,1929.06,3080,Unknown
2023-04-14 11:39:24.562,4.258,1943,8.27353,70,41.0,1959.68,3080,Unknown
2023-04-14 11:40:39.640,4.275,1941,8.29873,72,41.0,2020.92,3080,Unknown
2023-04-14 11:41:20.399,4.282,1943,8.32016,73,41.0,2020.92,3080,Unknown
2023-04-14 11:41:41.983,4.245,1434,6.08872,73,41.2,2051.54,3080,Unknown
2023-04-14 11:42:46.013,4.246,1434,6.09274,74,40.8,2082.16,3080,Unknown
2023-04-14 11:44:13.646,4.312,1943,8.3824,75,41.2,2112.78,3080,Unknown
2023-04-14 11:45:14.264,4.323,1942,8.39587,76,41.2,2143.4,3080,Unknown
2023-04-14 11:46:23.756,4.339,1943,8.43356,77,41.2,2174.02,3080,Unknown
2023-04-14 11:46:45.848,4.345,1940,8.43064,78,41.2,2204.64,3080,Unknown
2023-04-14 11:47:07.665,4.346,1893,8.22833,78,41.2,2204.64,3080,Unknown
2023-04-14 11:47:29.524,4.345,1828,7.94665,79,41.2,2204.64,3080,Unknown
2023-04-14 11:47:51.182,4.345,1772,7.70267,79,41.0,2235.26,3080,Unknown
2023-04-14 11:48:13.067,4.344,1720,7.47553,80,40.9,2235.26,3080,Unknown
2023-04-14 11:48:34.847,4.343,1675,7.27633,80,40.9,2235.26,3080,Unknown
2023-04-14 11:48:56.628,4.341,1625,7.05572,80,40.8,2265.88,3080,Unknown
2023-04-14 11:49:18.496,4.339,1573,6.82868,80,40.7,2265.88,3080,Unknown
2023-04-14 11:49:40.321,4.339,1531,6.64595,81,40.6,2265.88,3080,Unknown
2023-04-14 11:50:02.053,4.338,1488,6.45511,81,40.6,2296.5,3080,Unknown
2023-04-14 11:51:15.885,4.349,1487,6.47015,82,40.4,2327.12,3080,Unknown
2023-04-14 11:52:33.297,4.362,1484,6.47485,83,40.2,2357.74,3080,Unknown
2023-04-14 11:53:25.756,4.373,1484,6.49384,84,40.1,2357.74,3080,Unknown
2023-04-14 11:54:47.314,4.387,1487,6.524,85,40.0,2388.36,3080,Unknown
2023-04-14 11:55:48.535,4.397,1487,6.54022,86,39.8,2418.98,3080,Unknown
2023-04-14 11:56:39.055,4.407,1487,6.55644,87,39.7,2449.6,3080,Unknown
2023-04-14 11:58:15.902,4.425,1485,6.57376,88,39.6,2480.22,3080,Unknown
2023-04-14 11:59:18.214,4.435,1485,6.58862,89,39.6,2510.84,3080,Unknown
2023-04-14 12:00:18.876,4.446,1484,6.60225,90,39.5,2541.46,3080,Unknown
2023-04-14 12:00:51.495,4.451,1486,6.61646,90,39.5,2541.46,3080,Unknown
2023-04-14 12:01:13.454,4.455,1483,6.61017,90,39.5,2572.08,3080,Unknown
2023-04-14 12:01:35.196,4.458,1466,6.5398,91,39.5,2572.08,3080,Unknown
2023-04-14 12:01:56.943,4.457,1425,6.35471,91,39.5,2572.08,3080,Unknown
2023-04-14 12:02:18.638,4.456,1386,6.17922,91,39.4,2572.08,3080,Unknown
2023-04-14 12:02:40.424,4.455,1345,5.99293,91,39.4,2602.7,3080,Unknown
2023-04-14 12:03:02.217,4.455,1304,5.8094,92,39.3,2602.7,3080,Unknown
2023-04-14 12:03:23.953,4.454,1276,5.68576,92,39.2,2602.7,3080,Unknown
2023-04-14 12:03:45.673,4.454,1244,5.54168,92,39.2,2602.7,3080,Unknown
2023-04-14 12:04:07.374,4.454,1220,5.43429,92,39.1,2633.32,3080,Unknown
2023-04-14 12:04:29.018,4.453,1181,5.26185,93,39.1,2633.32,3080,Unknown
2023-04-14 12:04:50.565,4.452,1150,5.12073,93,39.0,2633.32,3080,Unknown
2023-04-14 12:05:12.335,4.451,1127,5.01906,93,38.9,2633.32,3080,Unknown
2023-04-14 12:05:34.066,4.451,1098,4.88866,93,38.9,2663.94,3080,Unknown
2023-04-14 12:05:55.840,4.451,1077,4.79765,93,38.9,2663.94,3080,Unknown
2023-04-14 12:06:17.608,4.449,1029,4.58097,94,38.8,2663.94,3080,Unknown
2023-04-14 12:06:39.378,4.451,1032,4.59661,94,38.8,2663.94,3080,Unknown
2023-04-14 12:07:01.114,4.453,1029,4.58237,94,38.7,2694.56,3080,Unknown
2023-04-14 12:07:22.858,4.454,1028,4.57932,94,38.7,2694.56,3080,Unknown
2023-04-14 12:07:44.715,4.457,1026,4.57697,94,38.7,2694.56,3080,Unknown
2023-04-14 12:08:06.623,4.459,1028,4.58583,95,38.6,2694.56,3080,Unknown
2023-04-14 12:08:28.410,4.46,1006,4.4875,95,38.5,2694.56,3080,Unknown
2023-04-14 12:08:50.228,4.459,982,4.38035,95,38.5,2694.56,3080,Unknown
2023-04-14 12:09:12.120,4.458,961,4.28549,95,38.4,2725.18,3080,Unknown
2023-04-14 12:09:33.951,4.458,939,4.1889,95,38.4,2725.18,3080,Unknown
2023-04-14 12:09:55.751,4.458,911,4.06373,95,38.4,2725.18,3080,Unknown
2023-04-14 12:10:17.615,4.458,894,3.98619,96,38.3,2725.18,3080,Unknown
2023-04-14 12:10:39.355,4.457,875,3.90232,96,38.3,2725.18,3080,Unknown
2023-04-14 12:11:01.192,4.456,855,3.81034,96,38.2,2755.8,3080,Unknown
2023-04-14 12:11:22.951,4.456,836,3.72739,96,38.1,2755.8,3080,Unknown
2023-04-14 12:11:44.712,4.456,814,3.62812,96,38.0,2755.8,3080,Unknown
2023-04-14 12:12:06.549,4.456,793,3.53564,97,37.9,2755.8,3080,Unknown
2023-04-14 12:12:28.333,4.455,784,3.49542,97,37.7,2755.8,3080,Unknown
2023-04-14 12:12:50.031,4.454,758,3.37639,97,37.7,2755.8,3080,Unknown
2023-04-14 12:13:11.947,4.456,747,3.33303,97,37.5,2786.42,3080,Unknown
2023-04-14 12:13:33.737,4.449,672,2.99243,97,37.4,2786.42,3080,Unknown
2023-04-14 12:13:55.439,4.45,674,3.00261,97,37.2,2786.42,3080,Unknown
2023-04-14 12:14:17.325,4.452,671,2.99173,97,37.0,2786.42,3080,Unknown
2023-04-14 12:14:39.100,4.452,671,2.98901,98,37.0,2786.42,3080,Unknown
2023-04-14 12:15:00.983,4.454,674,3.00259,98,36.8,2786.42,3080,Unknown
2023-04-14 12:15:22.725,4.456,675,3.00802,98,36.7,2786.42,3080,Unknown
2023-04-14 12:15:44.504,4.457,675,3.01141,98,36.6,2786.42,3080,Unknown
2023-04-14 12:16:06.374,4.459,673,3.00188,98,36.5,2817.04,3080,Unknown
2023-04-14 12:16:28.160,4.46,673,3.00527,98,36.4,2817.04,3080,Unknown
2023-04-14 12:16:49.957,4.461,673,3.00323,98,36.3,2817.04,3080,Unknown
2023-04-14 12:17:11.821,4.463,672,3.00321,98,36.2,2817.04,3080,Unknown
2023-04-14 12:17:33.572,4.463,657,2.93511,99,36.1,2817.04,3080,Unknown
2023-04-14 12:17:55.313,4.463,645,2.87927,99,36.0,2817.04,3080,Unknown
2023-04-14 12:18:17.189,4.462,635,2.83369,99,35.9,2817.04,3080,Unknown
2023-04-14 12:18:38.989,4.462,615,2.74517,99,35.8,2847.66,3080,Unknown
2023-04-14 12:19:00.871,4.462,604,2.69615,99,35.7,2847.66,3080,Unknown
2023-04-14 12:19:22.634,4.463,590,2.63547,99,35.6,2847.66,3080,Unknown
2023-04-14 12:19:44.424,4.461,572,2.55397,99,35.6,2847.66,3080,Unknown
2023-04-14 12:20:06.239,4.462,561,2.50415,99,35.5,2847.66,3080,Unknown
2023-04-14 12:20:28.038,4.461,560,2.50223,99,35.4,2847.66,3080,Unknown
2023-04-14 12:20:49.797,4.46,547,2.44314,100,35.3,2847.66,3080,Unknown
2023-04-14 12:21:11.590,4.461,531,2.37018,100,35.2,2847.66,3080,Unknown
2023-04-14 12:21:33.363,4.461,522,2.32934,100,35.1,2878.28,3080,Unknown
2023-04-14 12:21:55.148,4.456,471,2.09963,100,35.0,2878.28,3080,Unknown
2023-04-14 12:23:19.716,4.459,469,2.09288,100,34.7,2878.28,3080,Unknown
2023-04-14 12:23:55.548,4.46,467,2.08382,100,34.6,2878.28,3080,Unknown