File: dataset/pixel6a.txt
voltage(V),current(mA),battery_percent,battery_temperature(Celsius),remaining_battery_charge(mAh),battery_capacity(mAh),battery_technology
3.314,-3786.25,1,34.1,170,4410,Li-ion
3.77,-3979.062,1,35,194,4410,Li-ion
3.883,-3984.062,2,37.3,232,4410,Li-ion
4.026,-3979.687,5,38.8,362,4410,Li-ion
4.054,-3988.125,9,40.7,550,4410,Li-ion
4.068,-3982.5,11,41.5,634,4410,Li-ion
4.036,-3381.25,13,41.9,710,4410,Li-ion
4.056,-3989.062,17,41.3,870,4410,Li-ion
4.118,-3988.125,19,42,972,4410,Li-ion
4.088,-3374.062,22,42,1100,4410,Li-ion
4.099,-3374.062,24,42.3,1200,4410,Li-ion
4.155,-3982.5,27,42.1,1320,4410,Li-ion
4.113,-3387.187,29,42.1,1396,4410,Li-ion
4.125,-3374.687,32,42.4,1544,4410,Li-ion
4.063,-2456.562,35,42,1668,4410,Li-ion
4.066,-2456.875,37,40.6,1772,4410,Li-ion
4.077,-2459.687,40,40.2,1886,4410,Li-ion
4.175,-3702.5,42,40.3,1978,4410,Li-ion
4.185,-3611.875,42,41.1,1992,4410,Li-ion
4.183,-3570.937,43,41.6,2008,4410,Li-ion
4.183,-3523.75,43,41.7,2022,4410,Li-ion
4.183,-3509.062,43,41.7,2036,4410,Li-ion
4.186,-3462.5,44,41.9,2050,4410,Li-ion
4.18,-3373.75,44,42,2064,4410,Li-ion
4.182,-3379.062,45,42,2100,4410,Li-ion
4.185,-3345.625,45,42.1,2128,4410,Li-ion
4.185,-3316.875,45,42.1,2142,4410,Li-ion
4.185,-3307.5,46,42.2,2154,4410,Li-ion
4.184,-2446.875,46,42.3,2166,4410,Li-ion
4.118,-2453.75,47,41.2,2192,4410,Li-ion
4.128,-2455,49,40.8,2298,4410,Li-ion
4.13,-2455.937,50,40.8,2312,4410,Li-ion
4.137,-2457.187,51,40.3,2358,4410,Li-ion
4.154,-2875.937,53,39.6,2460,4410,Li-ion
4.23,-2993.125,57,40.6,2618,4410,Li-ion
4.254,-2984.375,60,40.7,2742,4410,Li-ion
4.286,-2953.125,64,41,2914,4410,Li-ion
4.287,-2903.75,64,41,2928,4410,Li-ion
4.287,-2868.125,64,41,2940,4410,Li-ion
4.287,-2858.75,64,41,2952,4410,Li-ion
4.285,-2835.625,65,41,2964,4410,Li-ion
4.286,-2789.687,65,40.9,2974,4410,Li-ion
4.286,-2760,65,40.9,2986,4410,Li-ion
4.286,-2714.687,66,40.8,2998,4410,Li-ion
4.286,-2704.375,66,40.8,3008,4410,Li-ion
4.288,-2688.437,66,40.7,3020,4410,Li-ion
4.288,-2646.562,66,40.7,3030,4410,Li-ion
4.287,-2624.375,67,40.6,3042,4410,Li-ion
4.287,-2602.187,67,40.6,3052,4410,Li-ion
4.287,-2566.562,67,40.5,3062,4410,Li-ion
4.287,-2550.937,67,40.5,3072,4410,Li-ion
4.287,-2515.312,68,40.5,3084,4410,Li-ion
4.287,-2495,68,40.5,3094,4410,Li-ion
4.286,-2475.625,68,40.6,3104,4410,Li-ion
4.286,-2449.687,68,40.6,3114,4410,Li-ion
4.287,-2438.437,69,40.5,3124,4410,Li-ion
4.287,-2403.125,69,40.5,3134,4410,Li-ion
4.287,-2369.062,69,40.5,3144,4410,Li-ion
4.288,-2348.125,69,40.4,3152,4410,Li-ion
4.289,-2306.875,69,40.3,3162,4410,Li-ion
4.289,-2289.375,69,40.3,3172,4410,Li-ion
4.289,-2276.25,69,40.3,3182,4410,Li-ion
4.288,-2262.5,70,40.1,3190,4410,Li-ion
4.287,-2235.625,70,40.1,3200,4410,Li-ion
4.287,-2203.125,70,40.1,3208,4410,Li-ion
4.287,-2182.812,70,40.1,3218,4410,Li-ion
4.289,-2163.125,71,39.9,3226,4410,Li-ion
4.289,-2116.875,71,39.9,3236,4410,Li-ion
4.289,-2111.875,71,39.9,3244,4410,Li-ion
4.289,-2130.625,71,39.9,3252,4410,Li-ion
4.318,-2136.562,74,38.9,3366,4410,Li-ion
4.343,-2127.5,76,38.4,3464,4410,Li-ion
4.386,-2119.375,80,37.9,3602,4410,Li-ion
4.404,-2119.687,81,37.8,3674,4410,Li-ion
4.428,-1979.062,84,37.4,3786,4410,Li-ion
4.43,-1820,85,37.1,3838,4410,Li-ion
4.43,-1763.125,85,37,3864,4410,Li-ion
4.43,-1723.437,85,37,3870,4410,Li-ion
4.43,-1714.687,86,36.8,3878,4410,Li-ion
4.429,-1678.75,86,36.8,3884,4410,Li-ion
4.431,-1669.375,86,36.8,3890,4410,Li-ion
4.431,-1648.437,86,36.8,3898,4410,Li-ion
4.431,-1635.312,86,36.8,3904,4410,Li-ion
4.431,-1609.687,87,36.7,3910,4410,Li-ion
4.431,-1585.625,87,36.6,3918,4410,Li-ion
4.431,-1571.25,87,36.6,3924,4410,Li-ion
4.43,-1547.5,87,36.5,3930,4410,Li-ion
4.43,-1538.437,87,36.5,3936,4410,Li-ion
4.432,-1520.625,87,36.4,3942,4410,Li-ion
4.432,-1498.75,87,36.4,3948,4410,Li-ion
4.431,-1486.875,88,36.3,3954,4410,Li-ion
4.431,-1478.125,88,36.3,3960,4410,Li-ion
4.432,-1460,88,36.3,3966,4410,Li-ion
4.431,-1450.312,88,36.2,3972,4410,Li-ion
4.431,-1438.437,88,36.2,3978,4410,Li-ion
4.431,-1414.375,88,36.2,3984,4410,Li-ion
4.431,-1400.625,88,36.1,3990,4410,Li-ion
4.431,-1370,89,36.1,3996,4410,Li-ion
4.431,-1350.937,89,36.1,4000,4410,Li-ion
4.431,-1339.687,89,36.1,4006,4410,Li-ion
4.431,-1325,89,36,4012,4410,Li-ion
4.431,-1316.562,89,36,4016,4410,Li-ion
4.431,-1313.125,89,36,4022,4410,Li-ion
4.431,-1281.875,89,36,4028,4410,Li-ion
4.431,-1278.125,89,36,4032,4410,Li-ion
4.431,-1275.312,90,35.8,4038,4410,Li-ion
4.431,-1250,90,35.8,4042,4410,Li-ion
4.431,-1235.312,90,35.8,4048,4410,Li-ion
4.431,-1225.625,90,35.8,4052,4410,Li-ion
4.434,-1210,90,35.7,4058,4410,Li-ion
4.434,-1186.562,90,35.7,4062,4410,Li-ion
4.434,-1178.437,90,35.7,4068,4410,Li-ion
4.434,-1171.562,90,35.7,4072,4410,Li-ion
4.431,-1155.625,90,35.5,4078,4410,Li-ion
4.431,-1143.75,90,35.5,4082,4410,Li-ion
4.433,-1142.812,91,35.4,4086,4410,Li-ion
4.433,-1113.75,91,35.4,4090,4410,Li-ion
4.432,-1105,91,35.4,4096,4410,Li-ion
4.432,-1105,91,35.3,4100,4410,Li-ion
4.432,-1092.812,91,35.3,4104,4410,Li-ion
4.432,-1080.937,91,35.3,4108,4410,Li-ion
4.431,-1063.75,91,35.2,4112,4410,Li-ion
4.431,-1057.5,91,35.2,4118,4410,Li-ion
4.431,-1051.25,91,35.2,4122,4410,Li-ion
4.431,-1025.625,92,35.1,4126,4410,Li-ion
4.433,-1032.812,92,35.1,4130,4410,Li-ion
4.433,-1015.937,92,35.1,4134,4410,Li-ion
4.433,-1001.875,92,35.1,4138,4410,Li-ion
4.433,-978.437,92,34.9,4142,4410,Li-ion
4.432,-999.687,92,35,4146,4410,Li-ion
4.432,-966.875,92,35,4150,4410,Li-ion
4.432,-959.062,92,35,4154,4410,Li-ion
4.432,-937.812,92,35,4158,4410,Li-ion
4.432,-945,92,34.6,4162,4410,Li-ion
4.432,-940.312,92,34.6,4166,4410,Li-ion
4.431,-928.75,93,34.6,4170,4410,Li-ion
4.431,-914.375,93,34.6,4172,4410,Li-ion
4.431,-910.937,93,34.6,4176,4410,Li-ion
4.433,-892.5,93,34.3,4180,4410,Li-ion
4.433,-904.062,93,34.3,4184,4410,Li-ion
4.432,-878.125,93,34.2,4188,4410,Li-ion
4.432,-862.5,93,34.2,4190,4410,Li-ion
4.433,-871.25,93,34.1,4194,4410,Li-ion
4.433,-849.687,93,34.1,4198,4410,Li-ion
4.433,-835.937,93,34.1,4202,4410,Li-ion
4.433,-823.437,93,34.1,4204,4410,Li-ion
4.434,-812.812,94,33.8,4208,4410,Li-ion
4.434,-816.562,94,33.8,4212,4410,Li-ion
4.434,-795.625,94,33.8,4214,4410,Li-ion
4.434,-797.812,94,33.8,4218,4410,Li-ion
4.433,-790,94,33.4,4220,4410,Li-ion
4.433,-786.875,94,33.4,4224,4410,Li-ion
4.433,-769.687,94,33.4,4228,4410,Li-ion
4.434,-774.687,94,33.3,4230,4410,Li-ion
4.433,-756.562,94,33.3,4234,4410,Li-ion
4.433,-745.312,94,33.3,4236,4410,Li-ion
4.433,-754.687,94,33.3,4240,4410,Li-ion
4.433,-735.625,94,33.3,4242,4410,Li-ion
4.435,-736.25,94,33,4246,4410,Li-ion
4.435,-725.625,94,33,4248,4410,Li-ion
4.435,-712.187,94,33,4252,4410,Li-ion
4.434,-710.312,95,33,4254,4410,Li-ion
4.434,-705.625,95,32.9,4256,4410,Li-ion
4.434,-696.875,95,32.9,4260,4410,Li-ion
4.434,-689.062,95,32.9,4262,4410,Li-ion
4.434,-693.437,95,32.9,4266,4410,Li-ion
4.434,-669.062,95,32.8,4268,4410,Li-ion
4.432,-676.875,95,32.8,4270,4410,Li-ion
4.432,-673.437,95,32.8,4274,4410,Li-ion
4.432,-670.937,95,32.8,4276,4410,Li-ion
4.432,-653.437,95,32.8,4278,4410,Li-ion
4.432,-639.375,95,32.8,4282,4410,Li-ion
4.432,-639.375,95,32.8,4284,4410,Li-ion
4.432,-639.375,95,32.8,4286,4410,Li-ion
4.432,-628.437,95,32.8,4290,4410,Li-ion
4.433,-619.687,95,32.7,4292,4410,Li-ion
4.434,-628.437,96,32.8,4294,4410,Li-ion
4.434,-618.437,96,32.8,4296,4410,Li-ion
4.434,-611.875,96,32.8,4300,4410,Li-ion
4.434,-620.312,96,32.8,4302,4410,Li-ion
4.434,-598.437,96,32.8,4304,4410,Li-ion
4.434,-613.75,96,32.8,4306,4410,Li-ion
4.434,-595.625,96,32.8,4310,4410,Li-ion
4.432,-585,96,32.8,4312,4410,Li-ion
4.432,-566.25,96,32.8,4314,4410,Li-ion
4.435,-590.312,96,32.7,4316,4410,Li-ion
4.435,-572.5,96,32.7,4318,4410,Li-ion
4.434,-574.062,96,32.8,4320,4410,Li-ion
4.434,-564.687,96,32.8,4324,4410,Li-ion
4.434,-570,96,32.8,4326,4410,Li-ion
4.434,-554.687,96,32.8,4328,4410,Li-ion
4.435,-544.062,96,32.7,4330,4410,Li-ion
4.435,-543.125,96,32.7,4332,4410,Li-ion
4.435,-535.625,96,32.7,4334,4410,Li-ion
4.435,-541.875,96,32.7,4336,4410,Li-ion
4.433,-530.312,97,32.7,4338,4410,Li-ion
4.434,-532.187,97,32.7,4340,4410,Li-ion
4.434,-517.812,97,32.7,4342,4410,Li-ion
4.434,-524.375,97,32.7,4344,4410,Li-ion
4.434,-512.812,97,32.7,4348,4410,Li-ion
4.435,-467.812,98,32.7,4356,4410,Li-ion
4.435,-486.562,98,32.6,4358,4410,Li-ion
4.435,-478.437,98,32.6,4360,4410,Li-ion
4.435,-473.125,98,32.6,4362,4410,Li-ion
4.434,-484.375,98,32.7,4364,4410,Li-ion
4.434,-480.312,98,32.7,4366,4410,Li-ion
4.434,-488.437,98,32.7,4368,4410,Li-ion
4.434,-470.937,98,32.7,4370,4410,Li-ion
4.434,-473.125,98,32.7,4372,4410,Li-ion
4.433,-471.562,99,33,4372,4410,Li-ion
4.434,-464.375,99,33.1,4374,4410,Li-ion
4.434,-472.187,99,33.1,4376,4410,Li-ion
4.434,-461.875,99,33.1,4378,4410,Li-ion
4.433,-452.5,99,33.2,4380,4410,Li-ion
4.433,-451.25,99,33.2,4382,4410,Li-ion
4.433,-458.437,99,33.2,4384,4410,Li-ion
4.433,-444.375,99,33.2,4386,4410,Li-ion
4.435,-446.562,100,33.4,4388,4410,Li-ion
4.435,-438.75,100,33.4,4390,4410,Li-ion
4.435,-426.875,100,33.4,4392,4410,Li-ion
4.435,-445.312,100,33.4,4394,4410,Li-ion
4.434,-437.5,100,33.4,4396,4410,Li-ion
4.435,-439.687,100,33.4,4396,4410,Li-ion
4.435,-435,100,33.4,4398,4410,Li-ion
4.435,-423.125,100,33.4,4400,4410,Li-ion
4.434,-415.937,100,33.3,4402,4410,Li-ion
4.434,-415.312,100,33.3,4404,4410,Li-ion
4.434,-413.125,100,33.3,4406,4410,Li-ion
4.434,-429.062,100,33.3,4408,4410,Li-ion
4.434,-405,100,33.3,4408,4410,Li-ion
4.434,-396.25,100,33.3,4410,4410,Li-ion
4.434,-404.375,100,33.3,4412,4410,Li-ion
4.434,-397.5,100,33.3,4414,4410,Li-ion
4.436,-389.375,100,33.2,4416,4410,Li-ion
4.436,-373.75,100,33.2,4416,4410,Li-ion
4.436,-388.75,100,33.2,4418,4410,Li-ion
4.436,-377.812,100,33.2,4420,4410,Li-ion
4.436,-384.375,100,33.2,4422,4410,Li-ion
4.436,-377.187,100,33.1,4424,4410,Li-ion