File: dataset/s21_fe.txt
voltage(V),current(mA),battery_percent,battery_temperature(Celsius),remaining_battery_charge(mAh),battery_capacity(mAh),battery_technology
3.36,1595,1,37.1,0,4370,Li-ion
3.517,-4887,1,36.7,0,4370,Li-ion
3.745,-4863,1,37.5,8.264,4370,Li-ion
3.807,-4891,1,38.1,37.188,4370,Li-ion
3.851,-4877,1,38.5,61.98,4370,Li-ion
3.885,-4866,2,38.7,90.904,4370,Li-ion
3.911,-4886,3,38.9,119.828,4370,Li-ion
3.932,-4945,3,39.1,148.752,4370,Li-ion
3.935,-4830,4,39.1,161.148,4370,Li-ion
3.946,-4845,4,39.3,190.072,4370,Li-ion
3.949,-4757,5,39.4,218.996,4370,Li-ion
3.951,-4888,6,39.6,243.788,4370,Li-ion
3.958,-4958,6,39.7,272.712,4370,Li-ion
3.959,-4820,7,39.9,301.636,4370,Li-ion
3.961,-4818,7,39.9,314.032,4370,Li-ion
3.966,-4826,8,40.1,342.956,4370,Li-ion
3.968,-4848,9,40.2,371.88,4370,Li-ion
3.973,-4905,10,40.4,396.672,4370,Li-ion
3.978,-4811,10,40.6,425.596,4370,Li-ion
3.983,-4778,11,40.7,454.52,4370,Li-ion
3.978,-4859,11,40.8,466.916,4370,Li-ion
3.989,-4863,12,40.9,495.84,4370,Li-ion
3.993,-4920,13,40.3,524.764,4370,Li-ion
3.876,-4706,13,40,549.556,4370,Li-ion
3.997,-4688,14,40,574.348,4370,Li-ion
3.995,-4758,14,40.4,599.14,4370,Li-ion
4.007,-4824,15,40.5,615.668,4370,Li-ion
4.013,-4815,15,40.7,640.46,4370,Li-ion
4.016,-4827,16,40.9,669.384,4370,Li-ion
4.02,-4730,17,41,698.308,4370,Li-ion
4.022,-4822,17,41.2,727.232,4370,Li-ion
4.025,-4328,18,41.3,752.024,4370,Li-ion
3.89,-4582,18,41.3,768.552,4370,Li-ion
4.023,-4844,19,41.1,780.948,4370,Li-ion
4.032,-4863,19,41.3,809.872,4370,Li-ion
3.9,-1875,20,41.5,838.796,4370,Li-ion
3.894,-1908,20,40.8,855.324,4370,Li-ion
3.888,-1839,21,40.1,863.588,4370,Li-ion
3.889,-1881,21,40,867.72,4370,Li-ion
3.889,-1869,21,39.6,880.116,4370,Li-ion
4.025,-4888,21,39.5,888.38,4370,Li-ion
4.041,-4807,22,40,913.172,4370,Li-ion
4.048,-4791,23,40.4,942.096,4370,Li-ion
4.05,-4802,23,40.8,971.02,4370,Li-ion
4.053,-4684,24,40.9,983.416,4370,Li-ion
4.055,-4816,24,41.2,1012.34,4370,Li-ion
4.057,-4743,25,41.4,1041.264,4370,Li-ion
3.927,-1857,26,41.5,1070.188,4370,Li-ion
3.916,-1825,26,40.7,1082.584,4370,Li-ion
3.91,-1850,26,40.1,1094.98,4370,Li-ion
3.912,-1825,26,39.9,1099.112,4370,Li-ion
3.91,-1731,27,39.6,1107.376,4370,Li-ion
3.979,-4663,27,39.4,1119.772,4370,Li-ion
4.049,-4886,27,39.8,1140.432,4370,Li-ion
4.063,-4881,28,40.5,1165.224,4370,Li-ion
4.065,-4858,29,40.9,1194.148,4370,Li-ion
4.072,-4700,29,41.2,1223.072,4370,Li-ion
4.071,-4809,30,41.4,1235.468,4370,Li-ion
3.936,-1780,30,41.4,1264.392,4370,Li-ion
3.922,-1851,31,40.7,1276.788,4370,Li-ion
3.922,-1820,31,40.2,1285.052,4370,Li-ion
3.921,-1859,31,39.9,1293.316,4370,Li-ion
3.92,-1813,31,39.6,1305.712,4370,Li-ion
4.054,-4709,32,39.4,1313.976,4370,Li-ion
4.067,-4823,32,39.7,1322.24,4370,Li-ion
4.07,-4655,33,40.2,1351.164,4370,Li-ion
4.071,-4603,33,40.7,1380.088,4370,Li-ion
4.068,-4507,34,41,1404.88,4370,Li-ion
4.069,-4529,34,41.1,1429.672,4370,Li-ion
4.066,-4419,35,41.3,1458.596,4370,Li-ion
4.07,-4398,36,41.4,1483.388,4370,Li-ion
3.974,-2084,36,41.5,1508.18,4370,Li-ion
3.967,-2143,36,41.2,1516.444,4370,Li-ion
3.958,-2150,37,40.7,1528.84,4370,Li-ion
3.961,-2142,37,40.3,1541.236,4370,Li-ion
3.939,-2160,37,40,1553.632,4370,Li-ion
3.961,-2154,38,39.8,1566.028,4370,Li-ion
3.961,-2094,38,39.6,1578.424,4370,Li-ion
3.961,-2071,38,39.5,1590.82,4370,Li-ion
4.074,-4280,38,39.5,1594.952,4370,Li-ion
4.069,-4129,39,40,1619.744,4370,Li-ion
4.069,-4015,40,40.2,1640.404,4370,Li-ion
4.069,-3946,40,40.4,1665.196,4370,Li-ion
4.068,-3949,41,40.5,1689.988,4370,Li-ion
4.072,-3897,41,40.6,1710.648,4370,Li-ion
4.075,-3861,42,40.6,1731.308,4370,Li-ion
4.077,-3894,42,40.7,1743.704,4370,Li-ion
4.079,-3958,43,40.8,1768.496,4370,Li-ion
4.081,-3907,43,40.9,1789.156,4370,Li-ion
4.086,-3899,44,41,1813.948,4370,Li-ion
4.089,-3925,44,41,1834.608,4370,Li-ion
4.09,-3868,45,41.1,1859.4,4370,Li-ion
4.085,-3902,45,41.2,1880.06,4370,Li-ion
4.095,-3690,46,41.3,1904.852,4370,Li-ion
4.095,-3938,46,41.3,1913.116,4370,Li-ion
4.085,-3511,47,41.4,1937.908,4370,Li-ion
3.998,-1837,47,41.7,1954.436,4370,Li-ion
4,-1903,47,41.4,1966.832,4370,Li-ion
4,-1915,48,41.1,1979.228,4370,Li-ion
3.999,-1913,48,40.8,1987.492,4370,Li-ion
3.995,-1934,48,40.7,1995.756,4370,Li-ion
3.999,-1917,48,40.4,2004.02,4370,Li-ion
4.002,-1914,48,40.2,2016.416,4370,Li-ion
4.002,-1903,49,40,2024.68,4370,Li-ion
4.005,-1922,49,39.8,2037.076,4370,Li-ion
4.006,-1914,49,39.7,2049.472,4370,Li-ion
4.006,-1878,50,39.6,2057.736,4370,Li-ion
4.05,-3757,50,39.4,2070.132,4370,Li-ion
4.105,-3893,50,39.5,2074.264,4370,Li-ion
4.115,-3851,51,39.8,2099.056,4370,Li-ion
4.12,-3935,51,40,2119.716,4370,Li-ion
4.127,-3938,52,40.2,2144.508,4370,Li-ion
4.13,-3977,52,40.4,2165.168,4370,Li-ion
4.131,-3880,53,40.6,2189.96,4370,Li-ion
4.137,-3933,53,40.7,2210.62,4370,Li-ion
4.141,-3962,54,40.7,2223.016,4370,Li-ion
4.144,-3938,54,40.9,2243.676,4370,Li-ion
4.147,-3852,55,41,2268.468,4370,Li-ion
4.15,-3898,55,41,2289.128,4370,Li-ion
4.153,-3923,56,41.1,2313.92,4370,Li-ion
4.159,-3947,56,41.2,2334.58,4370,Li-ion
4.132,-3548,57,41.3,2359.372,4370,Li-ion
4.159,-3309,57,41.5,2380.032,4370,Li-ion
4.077,-1926,58,41.6,2392.428,4370,Li-ion
4.069,-1895,58,41.2,2404.824,4370,Li-ion
4.067,-1890,58,40.8,2417.22,4370,Li-ion
4.07,-1827,58,40.5,2425.484,4370,Li-ion
4.067,-1913,59,40.2,2437.88,4370,Li-ion
4.059,-1520,59,40,2446.144,4370,Li-ion
4.072,-1851,59,39.9,2458.54,4370,Li-ion
4.071,-4037,59,39.5,2462.672,4370,Li-ion
4.176,-3898,60,38.6,2475.068,4370,Li-ion
4.19,-3987,60,39,2499.86,4370,Li-ion
4.198,-4025,61,39.4,2524.652,4370,Li-ion
4.193,-3846,61,39.6,2545.312,4370,Li-ion
4.205,-3928,62,40,2565.972,4370,Li-ion
4.201,-3689,62,40.3,2590.764,4370,Li-ion
4.203,-4057,63,40.6,2599.028,4370,Li-ion
4.195,-4006,63,40.9,2623.82,4370,Li-ion
4.209,-3885,64,41.1,2644.48,4370,Li-ion
4.214,-3890,64,41.3,2665.14,4370,Li-ion
4.13,-1898,65,41.6,2685.8,4370,Li-ion
4.084,-1762,65,41.3,2698.196,4370,Li-ion
4.122,-1283,65,41.2,2702.328,4370,Li-ion
4.076,-1845,65,41.1,2714.724,4370,Li-ion
4.112,-1168,66,41.1,2722.988,4370,Li-ion
4.123,-1910,66,41,2731.252,4370,Li-ion
4.125,-1960,66,40.8,2739.516,4370,Li-ion
4.089,-1919,66,40.5,2751.912,4370,Li-ion
4.131,-1779,67,40.4,2760.176,4370,Li-ion
4.135,-1455,67,40.2,2768.44,4370,Li-ion
4.136,-1803,67,40.1,2776.704,4370,Li-ion
4.129,-1790,67,40,2789.1,4370,Li-ion
4.14,-1890,67,39.9,2797.364,4370,Li-ion
4.144,-1372,68,39.8,2809.76,4370,Li-ion
4.141,-1903,68,39.6,2818.024,4370,Li-ion
4.148,-3971,68,39.5,2826.288,4370,Li-ion
4.25,-3966,69,39.6,2838.684,4370,Li-ion
4.254,-3979,69,39.9,2859.344,4370,Li-ion
4.271,-3873,70,40,2884.136,4370,Li-ion
4.27,-3762,70,40.1,2904.796,4370,Li-ion
4.269,-3564,71,40.2,2929.588,4370,Li-ion
4.27,-3462,71,40.2,2937.852,4370,Li-ion
4.268,-3481,71,40.2,2958.512,4370,Li-ion
4.267,-3325,72,40.1,2979.172,4370,Li-ion
4.268,-3261,72,40.1,2999.832,4370,Li-ion
4.269,-2826,73,40,3016.36,4370,Li-ion
4.265,-3045,73,40,3037.02,4370,Li-ion
4.269,-3016,73,40,3045.284,4370,Li-ion
4.269,-2984,74,40,3061.812,4370,Li-ion
4.278,-2743,74,39.9,3078.34,4370,Li-ion
4.282,-3090,75,39.9,3099,4370,Li-ion
4.29,-3122,75,39.9,3115.528,4370,Li-ion
4.291,-3080,76,39.9,3132.056,4370,Li-ion
4.292,-3101,76,39.8,3140.32,4370,Li-ion
4.3,-3175,76,39.8,3160.98,4370,Li-ion
4.306,-3140,77,39.8,3177.508,4370,Li-ion
4.31,-3169,77,39.8,3194.036,4370,Li-ion
4.31,-3174,78,39.8,3214.696,4370,Li-ion
4.32,-3124,78,39.8,3231.224,4370,Li-ion
4.322,-3113,78,39.7,3239.488,4370,Li-ion
4.329,-3135,79,39.7,3260.148,4370,Li-ion
4.332,-3046,79,39.7,3276.676,4370,Li-ion
4.339,-3154,80,39.7,3293.204,4370,Li-ion
4.345,-3170,80,39.6,3313.864,4370,Li-ion
4.349,-3184,80,39.6,3330.392,4370,Li-ion
4.35,-2978,81,39.6,3351.052,4370,Li-ion
4.357,-3042,81,39.6,3359.316,4370,Li-ion
4.36,-3174,81,39.6,3375.844,4370,Li-ion
4.367,-3108,82,39.6,3392.372,4370,Li-ion
4.349,-2955,82,39.6,3413.032,4370,Li-ion
4.369,-3160,83,39.6,3429.56,4370,Li-ion
4.384,-3174,83,39.6,3446.088,4370,Li-ion
4.385,-3147,83,39.6,3458.484,4370,Li-ion
4.391,-3137,84,39.6,3475.012,4370,Li-ion
4.395,-3165,84,39.6,3491.54,4370,Li-ion
4.399,-3119,85,39.6,3512.2,4370,Li-ion
4.406,-3116,85,39.6,3528.728,4370,Li-ion
4.411,-2986,86,39.6,3545.256,4370,Li-ion
4.415,-3112,86,39.6,3557.652,4370,Li-ion
4.417,-3087,86,39.6,3574.18,4370,Li-ion
4.417,-2947,87,39.5,3590.708,4370,Li-ion
4.414,-2841,87,39.5,3611.368,4370,Li-ion
4.416,-2797,87,39.4,3623.764,4370,Li-ion
4.415,-2683,88,39.4,3640.292,4370,Li-ion
4.414,-2668,88,39.4,3648.556,4370,Li-ion
4.417,-2563,88,39.3,3665.084,4370,Li-ion
4.417,-2423,89,39.2,3681.612,4370,Li-ion
4.413,-2378,89,39.1,3694.008,4370,Li-ion
4.417,-2401,89,39,3710.536,4370,Li-ion
4.417,-2415,90,38.9,3722.932,4370,Li-ion
4.415,-2297,90,38.9,3731.196,4370,Li-ion
4.417,-2243,90,38.8,3743.592,4370,Li-ion
4.417,-2112,91,38.7,3755.988,4370,Li-ion
4.413,-2087,91,38.7,3768.384,4370,Li-ion
4.416,-2020,91,38.6,3780.78,4370,Li-ion
4.416,-2040,91,38.5,3793.176,4370,Li-ion
4.4,-1712,92,38.5,3801.44,4370,Li-ion
4.395,-1627,92,39.3,3813.836,4370,Li-ion
4.393,-1902,92,39.5,3817.968,4370,Li-ion
4.397,-1968,92,39.9,3826.232,4370,Li-ion
4.416,-1906,93,39.9,3834.496,4370,Li-ion
4.418,-1875,93,39.7,3846.892,4370,Li-ion
4.4,-1283,94,38.2,3904.74,4370,Li-ion
4.4,-1161,95,37.9,3925.4,4370,Li-ion
4.4,-1209,95,38.4,3929.532,4370,Li-ion
4.4,-1070,96,37.6,3962.588,4370,Li-ion
4.401,-987,96,37.1,3991.512,4370,Li-ion
4.401,-959,96,37.4,3995.644,4370,Li-ion
4.401,-962,96,37.7,3999.776,4370,Li-ion
4.402,-925,97,37.8,4003.908,4370,Li-ion
4.4,-918,97,38,4008.04,4370,Li-ion
4.401,-48,97,38,4016.304,4370,Li-ion
4.337,-980,97,37.9,4020.436,4370,Li-ion
4.391,-990,97,38.3,4020.436,4370,Li-ion
4.399,-904,97,37.9,4024.568,4370,Li-ion
4.401,-952,98,37.4,4045.228,4370,Li-ion
4.401,-815,98,37.2,4078.284,4370,Li-ion
4.4,-781,99,37.4,4103.076,4370,Li-ion
4.402,-779,99,37.5,4107.208,4370,Li-ion
4.401,-767,99,37.6,4127.868,4370,Li-ion
4.401,-728,100,37.7,4132,4370,Li-ion
4.4,-740,100,37.7,4132,4370,Li-ion
4.4,-737,100,37.7,4132,4370,Li-ion
4.4,-724,100,37.7,4132,4370,Li-ion
4.4,-703,100,37.7,4132,4370,Li-ion
4.4,-701,100,37.7,4132,4370,Li-ion
4.4,-691,100,37.7,4132,4370,Li-ion
4.4,-661,100,37.7,4132,4370,Li-ion