File: dataset/samsung_a70-data.csv
timestamp,voltage(V),current(mA),power(W),battery_percent,battery_temperature(Celsius),remaining_battery_charge(mAh),battery_capacity(mAh),battery_technology
2023-04-14 17:12:33.937,3.733,2314,8.63816,1,36.9,0.0,4400,Li-ion
2023-04-14 17:13:09.240,3.846,1978,7.607388,2,36.7,0.0,4400,Li-ion
2023-04-14 17:13:46.122,4.11,4033,16.5756,2,37.7,0.0,4400,Li-ion
2023-04-14 17:14:33.355,3.929,1973,7.751917,3,36.5,0.0,4400,Li-ion
2023-04-14 17:15:09.565,4.152,4033,16.745,3,37.6,0.0,4400,Li-ion
2023-04-14 17:15:44.614,3.931,1970,7.74407,4,36.4,0.0,4400,Li-ion
2023-04-14 17:16:36.283,4.178,4031,16.8415,5,37.9,34.68,4400,Li-ion
2023-04-14 17:17:11.764,3.952,1803,7.125456,5,36.6,34.68,4400,Li-ion
2023-04-14 17:17:55.838,3.968,1980,7.85664,6,36.9,69.36,4400,Li-ion
2023-04-14 17:18:30.809,4.156,4005,16.6448,7,37.8,104.04,4400,Li-ion
2023-04-14 17:19:07.262,3.961,1768,7.003048,8,36.8,104.04,4400,Li-ion
2023-04-14 17:19:44.017,3.988,2058,8.2073,9,37.2,138.72,4400,Li-ion
2023-04-14 17:20:18.749,3.961,1895,7.506095,9,36.8,138.72,4400,Li-ion
2023-04-14 17:21:03.786,3.956,1860,7.35816,11,37.0,208.08,4400,Li-ion
2023-04-14 17:21:38.397,4.173,3974,16.5835,12,38.0,242.76,4400,Li-ion
2023-04-14 17:22:16.165,3.981,1976,7.86646,12,37.0,242.76,4400,Li-ion
2023-04-14 17:22:51.804,3.999,2025,8.097975,13,37.4,277.44,4400,Li-ion
2023-04-14 17:23:26.555,3.984,1907,7.597488,14,36.9,277.44,4400,Li-ion
2023-04-14 17:24:01.800,4.0,1638,6.552,15,37.0,312.12,4400,Li-ion
2023-04-14 17:24:36.418,4.208,4033,16.9709,16,38.1,346.8,4400,Li-ion
2023-04-14 17:25:21.749,3.984,1723,6.86443,17,37.1,346.8,4400,Li-ion
2023-04-14 17:25:56.300,3.979,1697,6.75236,18,37.0,416.16,4400,Li-ion
2023-04-14 17:26:44.084,4.017,1881,7.555977,19,37.2,450.84,4400,Li-ion
2023-04-14 17:27:18.614,4.008,1789,7.170312,20,37.1,450.84,4400,Li-ion
2023-04-14 17:28:40.617,4.236,3827,16.2112,21,38.5,485.52,4400,Li-ion
2023-04-14 17:29:38.190,4.051,2020,8.18302,23,37.7,554.88,4400,Li-ion
2023-04-14 17:30:12.934,4.01,1823,7.31023,25,37.5,624.24,4400,Li-ion
2023-04-14 17:30:47.735,3.942,1164,4.588488,25,37.5,624.24,4400,Li-ion
2023-04-14 17:31:23.342,3.934,1123,4.41788,26,37.5,624.24,4400,Li-ion
2023-04-14 17:31:58.332,3.979,1217,4.842443,26,37.4,658.92,4400,Li-ion
2023-04-14 17:32:47.190,4.018,1531,6.151558,26,37.6,658.92,4400,Li-ion
2023-04-14 17:33:21.776,4.027,1815,7.309005,27,37.5,693.6,4400,Li-ion
2023-04-14 17:34:01.010,4.219,3632,15.3234,28,38.7,728.28,4400,Li-ion
2023-04-14 17:34:36.603,4.036,1759,7.09932,28,37.7,728.28,4400,Li-ion
2023-04-14 17:35:11.226,4.024,1809,7.27942,29,37.6,762.96,4400,Li-ion
2023-04-14 17:35:45.980,4.049,1974,7.992726,29,37.7,762.96,4400,Li-ion
2023-04-14 17:36:20.825,4.03,1809,7.29027,30,37.7,797.64,4400,Li-ion
2023-04-14 17:37:02.875,4.228,3634,15.3646,30,38.7,797.64,4400,Li-ion
2023-04-14 17:37:37.572,4.018,1888,7.58598,31,37.9,832.32,4400,Li-ion
2023-04-14 17:38:12.194,4.023,1757,7.06841,32,37.9,867.0,4400,Li-ion
2023-04-14 17:38:52.373,4.217,3585,15.1179,32,38.8,867.0,4400,Li-ion
2023-04-14 17:39:32.063,4.051,1905,7.717155,33,37.9,901.68,4400,Li-ion
2023-04-14 17:40:06.919,4.038,1769,7.143222,33,37.8,901.68,4400,Li-ion
2023-04-14 17:40:46.567,4.231,3527,14.9227,34,38.9,936.36,4400,Li-ion
2023-04-14 17:42:09.006,4.223,3326,14.0457,36,39.0,1005.72,4400,Li-ion
2023-04-14 17:43:34.555,4.219,3222,13.5936,39,39.2,1109.76,4400,Li-ion
2023-04-14 17:44:23.920,4.006,1120,4.48672,39,38.5,1109.76,4400,Li-ion
2023-04-14 17:44:58.560,4.007,1482,5.938374,41,38.5,1179.12,4400,Li-ion
2023-04-14 17:45:33.165,3.977,1092,4.342884,42,38.4,1179.12,4400,Li-ion
2023-04-14 17:46:07.867,3.99,1191,4.75209,42,38.4,1179.12,4400,Li-ion
2023-04-14 17:46:42.155,3.965,1342,5.32103,42,38.4,1213.8,4400,Li-ion
2023-04-14 17:47:17.466,3.993,1118,4.464174,42,38.4,1213.8,4400,Li-ion
2023-04-14 17:47:52.469,3.989,907,3.618023,43,38.4,1213.8,4400,Li-ion
2023-04-14 17:48:26.772,4.017,1158,4.651686,43,38.3,1213.8,4400,Li-ion
2023-04-14 17:49:01.059,3.991,789,3.148899,44,38.3,1248.48,4400,Li-ion
2023-04-14 17:49:35.411,4.008,1348,5.40278,44,38.3,1248.48,4400,Li-ion
2023-04-14 17:50:10.032,3.891,566,2.202306,45,38.3,1283.16,4400,Li-ion
2023-04-14 17:50:44.713,3.947,1087,4.290389,45,38.4,1283.16,4400,Li-ion
2023-04-14 17:51:19.186,4.059,1630,6.61617,45,38.4,1283.16,4400,Li-ion
2023-04-14 17:51:53.750,3.983,978,3.895374,46,38.4,1317.84,4400,Li-ion
2023-04-14 17:52:48.037,3.98,875,3.4825,46,38.4,1317.84,4400,Li-ion
2023-04-14 17:53:22.551,4.064,1665,6.76656,48,38.2,1352.52,4400,Li-ion
2023-04-14 17:53:57.232,4.079,1778,7.25246,49,38.0,1387.2,4400,Li-ion
2023-04-14 17:54:35.972,3.903,654,2.552562,49,38.3,1387.2,4400,Li-ion
2023-04-14 17:55:10.499,4.22,3221,13.59262,50,38.9,1421.88,4400,Li-ion
2023-04-14 17:56:26.710,4.257,3218,13.699,52,39.1,1456.56,4400,Li-ion
2023-04-14 17:57:03.114,4.115,1651,6.793865,53,38.4,1525.92,4400,Li-ion
2023-04-14 17:57:37.791,4.099,1733,7.10357,53,38.3,1525.92,4400,Li-ion
2023-04-14 17:58:59.841,4.271,3218,13.7441,54,39.2,1560.6,4400,Li-ion
2023-04-14 18:00:09.739,4.117,1584,6.52133,57,38.9,1664.64,4400,Li-ion
2023-04-14 18:00:44.734,4.13,1849,7.63637,58,38.7,1664.64,4400,Li-ion
2023-04-14 18:01:19.371,4.116,1730,7.12068,59,38.7,1699.32,4400,Li-ion
2023-04-14 18:01:53.971,4.28,3221,13.78588,59,39.4,1699.32,4400,Li-ion
2023-04-14 18:02:28.688,4.28,3119,13.3493,60,39.4,1734.0,4400,Li-ion
2023-04-14 18:03:03.468,4.285,3122,13.37777,60,39.5,1734.0,4400,Li-ion
2023-04-14 18:04:02.714,4.281,3022,12.9372,62,39.6,1803.36,4400,Li-ion
2023-04-14 18:05:02.466,4.28,2918,12.48904,64,39.7,1838.04,4400,Li-ion
2023-04-14 18:06:13.602,4.282,2816,12.0581,65,39.8,1907.4,4400,Li-ion
2023-04-14 18:06:48.204,4.166,1756,7.315496,67,39.4,1942.08,4400,Li-ion
2023-04-14 18:07:22.881,4.152,1513,6.281976,67,39.3,1942.08,4400,Li-ion
2023-04-14 18:07:57.491,4.12,1548,6.37776,68,39.2,1976.76,4400,Li-ion
2023-04-14 18:08:34.228,4.199,1997,8.385403,69,39.3,2011.44,4400,Li-ion
2023-04-14 18:09:08.934,4.17,1755,7.31835,69,39.1,2011.44,4400,Li-ion
2023-04-14 18:09:43.558,4.172,1584,6.608448,70,39.1,2011.44,4400,Li-ion
2023-04-14 18:10:18.211,4.282,2812,12.041,70,39.6,2011.44,4400,Li-ion
2023-04-14 18:11:10.907,4.281,2608,11.1648,71,39.5,2080.8,4400,Li-ion
2023-04-14 18:12:07.511,4.278,2506,10.7207,72,39.5,2115.48,4400,Li-ion
2023-04-14 18:12:57.764,4.201,1718,7.21732,73,39.1,2150.16,4400,Li-ion
2023-04-14 18:13:32.235,4.172,1394,5.81577,73,39.0,2150.16,4400,Li-ion
2023-04-14 18:14:06.782,4.184,1555,6.50612,74,39.0,2184.84,4400,Li-ion
2023-04-14 18:14:41.454,4.221,1864,7.867944,74,39.0,2184.84,4400,Li-ion
2023-04-14 18:15:16.186,4.206,1666,7.007196,76,39.0,2219.52,4400,Li-ion
2023-04-14 18:15:50.963,4.195,1596,6.69522,77,38.9,2254.2,4400,Li-ion
2023-04-14 18:16:42.867,4.285,2306,9.88121,77,39.2,2254.2,4400,Li-ion
2023-04-14 18:17:46.580,4.285,2203,9.439855,78,39.0,2288.88,4400,Li-ion
2023-04-14 18:18:57.778,4.283,2102,9.00287,80,39.0,2358.24,4400,Li-ion
2023-04-14 18:20:09.085,4.28,2000,8.56,81,39.0,2392.92,4400,Li-ion
2023-04-14 18:21:36.767,4.28,1898,8.12344,82,38.9,2427.6,4400,Li-ion
2023-04-14 18:22:49.493,4.277,1795,7.677215,83,38.9,2462.28,4400,Li-ion
2023-04-14 18:24:15.943,4.294,1831,7.86231,85,38.8,2531.64,4400,Li-ion
2023-04-14 18:24:50.743,4.293,1786,7.6673,85,38.9,2531.64,4400,Li-ion
2023-04-14 18:25:25.268,4.293,1745,7.491285,86,39.0,2566.32,4400,Li-ion
2023-04-14 18:26:13.627,4.293,1707,7.32815,86,39.0,2566.32,4400,Li-ion
2023-04-14 18:26:48.018,4.235,1236,5.23446,87,38.7,2566.32,4400,Li-ion
2023-04-14 18:27:22.553,4.224,1147,4.844928,87,38.6,2601.0,4400,Li-ion
2023-04-14 18:27:57.257,4.232,729,3.085128,87,38.6,2601.0,4400,Li-ion
2023-04-14 18:28:31.648,4.211,1187,4.998457,88,38.6,2601.0,4400,Li-ion
2023-04-14 18:29:06.223,4.236,1131,4.790916,88,38.6,2601.0,4400,Li-ion
2023-04-14 18:29:41.071,4.25,839,3.56575,88,38.7,2635.68,4400,Li-ion
2023-04-14 18:30:15.318,4.206,1361,5.72437,88,38.7,2635.68,4400,Li-ion
2023-04-14 18:30:49.696,4.243,1148,4.870964,89,38.7,2670.36,4400,Li-ion
2023-04-14 18:31:24.022,4.252,788,3.350576,89,38.8,2670.36,4400,Li-ion
2023-04-14 18:31:58.207,4.25,1225,5.20625,89,38.8,2670.36,4400,Li-ion
2023-04-14 18:32:32.382,4.253,1143,4.861179,89,38.7,2670.36,4400,Li-ion
2023-04-14 18:33:07.056,4.21,834,3.51114,90,38.7,2705.04,4400,Li-ion
2023-04-14 18:33:41.557,4.263,1264,5.388432,90,38.7,2705.04,4400,Li-ion
2023-04-14 18:34:15.894,4.212,654,2.754648,90,38.7,2705.04,4400,Li-ion
2023-04-14 18:34:50.568,4.215,812,3.42258,91,38.7,2739.72,4400,Li-ion
2023-04-14 18:35:26.485,4.191,602,2.522982,91,38.7,2739.72,4400,Li-ion
2023-04-14 18:36:02.476,4.218,825,3.47985,91,38.7,2739.72,4400,Li-ion
2023-04-14 18:36:37.049,4.264,1400,5.9696,91,38.8,2739.72,4400,Li-ion
2023-04-14 18:37:12.965,4.264,1155,4.92492,91,38.8,2739.72,4400,Li-ion
2023-04-14 18:37:47.431,4.255,813,3.459315,92,38.9,2774.4,4400,Li-ion
2023-04-14 18:38:21.851,4.244,1081,4.587764,92,39.0,2774.4,4400,Li-ion
2023-04-14 18:38:56.166,4.253,1111,4.725083,92,39.0,2774.4,4400,Li-ion
2023-04-14 18:39:34.632,4.293,1322,5.675346,92,39.1,2774.4,4400,Li-ion
2023-04-14 18:40:16.565,4.293,1133,4.863969,93,39.0,2809.08,4400,Li-ion
2023-04-14 18:41:00.125,4.293,1249,5.361957,93,39.0,2843.76,4400,Li-ion
2023-04-14 18:42:08.324,4.294,1180,5.06692,94,38.8,2843.76,4400,Li-ion
2023-04-14 18:43:41.145,4.295,1110,4.76745,94,38.7,2878.44,4400,Li-ion
2023-04-14 18:45:09.984,4.295,1044,4.48398,95,38.3,2913.12,4400,Li-ion
2023-04-14 18:45:44.706,4.293,1020,4.37886,95,38.2,2913.12,4400,Li-ion
2023-04-14 18:46:46.843,4.292,983,4.219036,96,38.3,2913.12,4400,Li-ion
2023-04-14 18:48:26.372,4.294,919,3.946186,97,37.5,2947.8,4400,Li-ion
2023-04-14 18:49:39.314,4.294,873,3.748662,97,37.3,2982.48,4400,Li-ion
2023-04-14 18:51:11.778,4.294,826,3.546844,97,37.5,2982.48,4400,Li-ion
2023-04-14 18:52:40.222,4.294,782,3.357908,98,37.4,3017.16,4400,Li-ion
2023-04-14 18:54:33.990,4.294,740,3.17756,99,37.3,3051.84,4400,Li-ion
2023-04-14 18:55:46.427,4.294,720,3.09168,99,37.4,3051.84,4400,Li-ion
2023-04-14 18:56:57.330,4.294,687,2.949978,99,37.3,3086.52,4400,Li-ion
2023-04-14 18:58:29.911,4.294,658,2.825452,99,37.2,3086.52,4400,Li-ion
2023-04-14 19:00:07.535,4.295,622,2.67149,99,37.1,3121.2,4400,Li-ion
2023-04-14 19:00:53.524,4.294,399,1.713306,100,37.1,3121.2,4400,Li-ion