File: dataset/samsung_s21fe-data.csv
timestamp,voltage(V),current(mA),power(W),battery_percent,battery_temperature(Celsius),remaining_battery_charge(mAh),battery_capacity(mAh),battery_technology
2023-04-14 13:05:45.846,3.36,1595,5.3592,1,37.1,0.0,4370,Li-ion
2023-04-14 13:06:19.455,3.745,4817,18.0397,1,37.5,8.264,4370,Li-ion
2023-04-14 13:06:53.152,3.828,4875,18.6615,1,38.3,49.584,4370,Li-ion
2023-04-14 13:07:26.901,3.885,4936,19.17636,2,38.7,90.904,4370,Li-ion
2023-04-14 13:08:00.481,3.932,4852,19.0781,3,39.1,148.752,4370,Li-ion
2023-04-14 13:08:34.220,3.946,4790,18.90134,4,39.3,190.072,4370,Li-ion
2023-04-14 13:09:07.781,3.951,4791,18.9292,5,39.5,231.392,4370,Li-ion
2023-04-14 13:09:41.451,3.958,4810,19.03798,7,39.8,285.108,4370,Li-ion
2023-04-14 13:10:15.120,3.964,4860,19.265,8,40.0,326.428,4370,Li-ion
2023-04-14 13:10:48.767,3.968,4848,19.2369,9,40.2,371.88,4370,Li-ion
2023-04-14 13:11:22.395,3.979,4884,19.4334,10,40.5,413.2,4370,Li-ion
2023-04-14 13:11:55.984,3.978,4843,19.2655,11,40.8,466.916,4370,Li-ion
2023-04-14 13:12:29.637,3.992,4847,19.3492,12,41.0,508.236,4370,Li-ion
2023-04-14 13:13:03.077,3.876,4715,18.27534,13,40.0,549.556,4370,Li-ion
2023-04-14 13:13:36.832,4.0,4864,19.456,14,40.2,586.744,4370,Li-ion
2023-04-14 13:14:10.451,4.013,4900,19.6637,15,40.7,640.46,4370,Li-ion
2023-04-14 13:14:44.073,4.011,4777,19.1605,16,41.0,685.912,4370,Li-ion
2023-04-14 13:15:17.678,4.022,4779,19.2211,17,41.2,727.232,4370,Li-ion
2023-04-14 13:15:51.138,3.89,4582,17.82398,18,41.3,768.552,4370,Li-ion
2023-04-14 13:16:24.600,4.032,4819,19.4302,19,41.3,809.872,4370,Li-ion
2023-04-14 13:16:58.254,3.895,1836,7.15122,20,41.1,847.06,4370,Li-ion
2023-04-14 13:17:31.842,3.888,1839,7.150032,21,40.1,863.588,4370,Li-ion
2023-04-14 13:18:05.508,3.889,1877,7.29965,21,39.6,880.116,4370,Li-ion
2023-04-14 13:18:39.196,4.041,4876,19.7039,22,40.0,913.172,4370,Li-ion
2023-04-14 13:19:12.874,4.047,4801,19.4296,23,40.6,954.492,4370,Li-ion
2023-04-14 13:19:46.561,4.054,4595,18.62813,24,41.0,999.944,4370,Li-ion
2023-04-14 13:20:20.208,4.057,4850,19.67645,25,41.4,1053.66,4370,Li-ion
2023-04-14 13:20:53.834,3.916,1825,7.1467,26,40.7,1082.584,4370,Li-ion
2023-04-14 13:21:27.527,3.912,1855,7.25676,26,39.9,1099.112,4370,Li-ion
2023-04-14 13:22:01.182,3.91,2161,8.44951,27,39.5,1115.64,4370,Li-ion
2023-04-14 13:22:34.908,4.054,4767,19.3254,28,40.1,1152.828,4370,Li-ion
2023-04-14 13:23:09.025,4.065,4825,19.6136,29,40.9,1194.148,4370,Li-ion
2023-04-14 13:23:43.105,4.071,4655,18.9505,30,41.4,1235.468,4370,Li-ion
2023-04-14 13:24:17.248,3.916,1763,6.903908,31,41.0,1276.788,4370,Li-ion
2023-04-14 13:24:51.360,3.921,1809,7.09309,31,40.0,1289.184,4370,Li-ion
2023-04-14 13:25:25.551,3.92,1808,7.08736,31,39.6,1305.712,4370,Li-ion
2023-04-14 13:25:59.776,4.067,4823,19.6151,32,39.7,1322.24,4370,Li-ion
2023-04-14 13:26:34.014,4.071,4587,18.6737,33,40.7,1380.088,4370,Li-ion
2023-04-14 13:27:08.185,4.068,4471,18.188,34,41.0,1417.276,4370,Li-ion
2023-04-14 13:27:42.376,4.066,4355,17.7074,35,41.3,1458.596,4370,Li-ion
2023-04-14 13:28:16.527,3.974,2170,8.62358,36,41.5,1508.18,4370,Li-ion
2023-04-14 13:28:50.744,3.958,2105,8.33159,37,40.7,1528.84,4370,Li-ion
2023-04-14 13:29:24.853,3.917,2109,8.26095,37,40.1,1545.368,4370,Li-ion
2023-04-14 13:29:59.010,3.961,2131,8.44089,38,39.7,1570.16,4370,Li-ion
2023-04-14 13:30:33.155,3.961,4614,18.2761,38,39.5,1590.82,4370,Li-ion
2023-04-14 13:31:07.364,4.069,4129,16.8009,39,40.0,1619.744,4370,Li-ion
2023-04-14 13:31:41.574,4.069,3443,14.0096,40,40.4,1665.196,4370,Li-ion
2023-04-14 13:32:15.719,4.071,3960,16.12116,41,40.5,1698.252,4370,Li-ion
2023-04-14 13:32:49.857,4.075,3914,15.9496,42,40.6,1731.308,4370,Li-ion
2023-04-14 13:33:23.942,4.081,3830,15.63023,43,40.8,1776.76,4370,Li-ion
2023-04-14 13:33:58.046,4.086,4009,16.3808,44,41.0,1813.948,4370,Li-ion
2023-04-14 13:34:32.256,4.088,3883,15.8737,45,41.1,1847.004,4370,Li-ion
2023-04-14 13:35:06.425,4.085,3923,16.0255,45,41.2,1880.06,4370,Li-ion
2023-04-14 13:35:40.637,4.097,3925,16.0807,46,41.4,1925.512,4370,Li-ion
2023-04-14 13:36:14.108,3.998,1837,7.34433,47,41.7,1954.436,4370,Li-ion
2023-04-14 13:36:48.086,4.0,1936,7.744,47,41.3,1970.964,4370,Li-ion
2023-04-14 13:37:22.067,3.995,1885,7.530575,48,40.7,1995.756,4370,Li-ion
2023-04-14 13:37:56.157,3.995,1897,7.578515,48,40.3,2008.152,4370,Li-ion
2023-04-14 13:38:30.409,4.002,1895,7.58379,49,40.0,2024.68,4370,Li-ion
2023-04-14 13:39:04.473,4.006,1670,6.69002,49,39.7,2049.472,4370,Li-ion
2023-04-14 13:39:38.649,4.008,1934,7.751472,50,39.5,2066.0,4370,Li-ion
2023-04-14 13:40:12.786,4.111,3911,16.0781,50,39.7,2086.66,4370,Li-ion
2023-04-14 13:40:46.999,4.114,3870,15.92118,51,40.1,2132.112,4370,Li-ion
2023-04-14 13:41:21.165,4.13,3977,16.42501,52,40.4,2165.168,4370,Li-ion
2023-04-14 13:41:55.423,4.137,3925,16.2377,53,40.6,2198.224,4370,Li-ion
2023-04-14 13:42:29.620,4.144,3919,16.2403,54,40.9,2243.676,4370,Li-ion
2023-04-14 13:43:03.783,4.15,3918,16.2597,55,41.0,2276.732,4370,Li-ion
2023-04-14 13:43:38.053,4.153,3995,16.5912,56,41.1,2313.92,4370,Li-ion
2023-04-14 13:44:12.267,4.16,3327,13.84032,57,41.2,2346.976,4370,Li-ion
2023-04-14 13:44:45.916,4.077,1985,8.092845,58,41.6,2392.428,4370,Li-ion
2023-04-14 13:45:20.145,4.058,1903,7.72237,58,41.0,2408.956,4370,Li-ion
2023-04-14 13:45:54.215,4.07,1926,7.83882,58,40.5,2425.484,4370,Li-ion
2023-04-14 13:46:28.407,4.059,1520,6.16968,59,40.0,2446.144,4370,Li-ion
2023-04-14 13:47:02.468,4.071,1670,6.79857,59,39.5,2462.672,4370,Li-ion
2023-04-14 13:47:36.645,4.183,3930,16.43919,60,38.8,2487.464,4370,Li-ion
2023-04-14 13:48:10.838,4.198,3989,16.7458,61,39.5,2532.916,4370,Li-ion
2023-04-14 13:48:44.908,4.205,3803,15.9916,62,40.0,2565.972,4370,Li-ion
2023-04-14 13:49:18.657,4.203,3750,15.76125,63,40.6,2599.028,4370,Li-ion
2023-04-14 13:49:52.292,4.217,3772,15.9065,64,41.0,2644.48,4370,Li-ion
2023-04-14 13:50:25.594,4.217,3600,15.1812,65,41.5,2677.536,4370,Li-ion
2023-04-14 13:50:58.774,4.084,1867,7.62483,65,41.3,2698.196,4370,Li-ion
2023-04-14 13:51:32.916,4.076,1845,7.52022,65,41.1,2714.724,4370,Li-ion
2023-04-14 13:52:07.020,4.123,1946,8.023358,66,41.0,2731.252,4370,Li-ion
2023-04-14 13:52:40.960,4.122,1905,7.85241,66,40.6,2747.78,4370,Li-ion
2023-04-14 13:53:14.480,4.131,1947,8.04306,67,40.4,2760.176,4370,Li-ion
2023-04-14 13:53:47.796,4.136,1670,6.90712,67,40.1,2776.704,4370,Li-ion
2023-04-14 13:54:21.466,4.14,1918,7.94052,67,39.9,2797.364,4370,Li-ion
2023-04-14 13:54:54.970,4.135,1939,8.017765,68,39.7,2813.892,4370,Li-ion
2023-04-14 13:55:28.674,4.227,3920,16.56984,68,39.5,2830.42,4370,Li-ion
2023-04-14 13:56:02.414,4.254,3953,16.8161,69,39.9,2859.344,4370,Li-ion
2023-04-14 13:56:36.131,4.27,3762,16.06374,70,40.1,2904.796,4370,Li-ion
2023-04-14 13:57:09.764,4.27,3575,15.26525,71,40.2,2937.852,4370,Li-ion
2023-04-14 13:57:43.394,4.27,3335,14.24045,72,40.2,2970.908,4370,Li-ion
2023-04-14 13:58:17.064,4.268,3238,13.8198,73,40.1,3008.096,4370,Li-ion
2023-04-14 13:58:50.652,4.265,3061,13.0552,73,40.0,3037.02,4370,Li-ion
2023-04-14 13:59:24.350,4.269,2956,12.6192,74,40.0,3061.812,4370,Li-ion
2023-04-14 13:59:58.036,4.281,3169,13.5665,75,39.9,3086.604,4370,Li-ion
2023-04-14 14:00:31.788,4.291,3074,13.1905,75,39.9,3123.792,4370,Li-ion
2023-04-14 14:01:05.474,4.297,3114,13.3809,76,39.8,3152.716,4370,Li-ion
2023-04-14 14:01:39.243,4.306,3140,13.5208,77,39.8,3177.508,4370,Li-ion
2023-04-14 14:02:12.883,4.313,3164,13.6463,77,39.8,3202.3,4370,Li-ion
2023-04-14 14:02:46.565,4.322,3053,13.1951,78,39.7,3239.488,4370,Li-ion
2023-04-14 14:03:20.254,4.333,3141,13.61,79,39.7,3268.412,4370,Li-ion
2023-04-14 14:03:53.932,4.339,3119,13.5333,80,39.7,3293.204,4370,Li-ion
2023-04-14 14:04:27.599,4.347,3081,13.3931,80,39.6,3322.128,4370,Li-ion
2023-04-14 14:05:01.264,4.357,3111,13.5546,81,39.6,3359.316,4370,Li-ion
2023-04-14 14:05:34.850,4.364,3108,13.5633,82,39.6,3384.108,4370,Li-ion
2023-04-14 14:06:08.441,4.349,3172,13.795,82,39.6,3413.032,4370,Li-ion
2023-04-14 14:06:42.102,4.384,3174,13.9148,83,39.6,3446.088,4370,Li-ion
2023-04-14 14:07:15.820,4.391,3117,13.6867,84,39.6,3475.012,4370,Li-ion
2023-04-14 14:07:49.310,4.365,2739,11.9557,85,39.6,3503.936,4370,Li-ion
2023-04-14 14:08:22.987,4.406,3128,13.782,85,39.6,3528.728,4370,Li-ion
2023-04-14 14:08:56.663,4.416,3094,13.6631,86,39.6,3565.916,4370,Li-ion
2023-04-14 14:09:30.325,4.417,2930,12.94181,87,39.5,3590.708,4370,Li-ion
2023-04-14 14:10:04.024,4.414,2793,12.3283,87,39.5,3615.5,4370,Li-ion
2023-04-14 14:10:37.585,4.415,2664,11.76156,88,39.4,3640.292,4370,Li-ion
2023-04-14 14:11:11.186,4.417,2510,11.0867,89,39.2,3673.348,4370,Li-ion
2023-04-14 14:11:44.867,4.413,2378,10.4941,89,39.1,3694.008,4370,Li-ion
2023-04-14 14:12:18.544,4.415,2344,10.34876,90,39.0,3714.668,4370,Li-ion
2023-04-14 14:12:52.222,4.417,2377,10.4992,90,38.9,3735.328,4370,Li-ion
2023-04-14 14:13:25.994,4.412,2109,9.304908,91,38.7,3760.12,4370,Li-ion
2023-04-14 14:13:59.644,4.416,2054,9.070464,91,38.6,3780.78,4370,Li-ion
2023-04-14 14:14:33.802,4.4,1570,6.908,92,38.5,3797.308,4370,Li-ion
2023-04-14 14:15:10.310,4.393,1665,7.31434,92,39.5,3817.968,4370,Li-ion
2023-04-14 14:15:44.047,4.415,1681,7.421615,92,39.9,3830.364,4370,Li-ion
2023-04-14 14:16:19.124,4.401,1400,6.1614,93,39.6,3851.024,4370,Li-ion
2023-04-14 14:19:24.848,4.4,1161,5.1084,95,37.9,3925.4,4370,Li-ion
2023-04-14 14:21:15.149,4.399,1090,4.79491,95,38.1,3950.192,4370,Li-ion
2023-04-14 14:23:12.082,4.403,970,4.27091,96,37.2,3995.644,4370,Li-ion
2023-04-14 14:23:45.359,4.401,946,4.163346,96,37.7,3999.776,4370,Li-ion
2023-04-14 14:24:18.517,4.4,907,3.9908,97,38.0,4012.172,4370,Li-ion
2023-04-14 14:24:52.164,4.337,850,3.68645,97,37.9,4020.436,4370,Li-ion
2023-04-14 14:25:26.141,4.399,928,4.08227,97,38.0,4020.436,4370,Li-ion
2023-04-14 14:26:53.471,4.401,799,3.516399,98,37.2,4074.152,4370,Li-ion
2023-04-14 14:27:26.998,4.4,801,3.5244,99,37.4,4103.076,4370,Li-ion
2023-04-14 14:27:59.993,4.401,767,3.375567,99,37.6,4127.868,4370,Li-ion
2023-04-14 14:28:33.257,4.4,736,3.2384,100,37.7,4132.0,4370,Li-ion
2023-04-14 14:29:06.429,4.4,719,3.1636,100,37.7,4132.0,4370,Li-ion
2023-04-14 14:29:40.892,4.4,704,3.0976,100,37.7,4132.0,4370,Li-ion
2023-04-14 14:30:13.971,4.4,660,2.904,100,37.7,4132.0,4370,Li-ion
2023-04-14 14:30:29.695,4.4,661,2.9084,100,37.7,4132.0,4370,Li-ion