File: dataset/samsung_A70.txt
voltage(V),current(mA),battery_percent,battery_temperature(Celsius),remaining_battery_charge(mAh),battery_capacity(mAh),battery_technology
3.733,-2314454,1,36.9,0,4400,Li-ion
4.046,-1766053,1,37.5,0,4400,Li-ion
3.845,-1970826,2,36.6,0,4400,Li-ion
4.086,-4002688,2,37.7,0,4400,Li-ion
4.148,-4041750,2,37.8,0,4400,Li-ion
3.919,-1838380,3,36.5,0,4400,Li-ion
3.918,-1894227,3,36.4,0,4400,Li-ion
3.959,-2015382,4,36.7,0,4400,Li-ion
3.942,-1914369,4,36.4,0,4400,Li-ion
4.148,-4037783,4,37.5,0,4400,Li-ion
4.178,-4038394,5,37.9,34.68,4400,Li-ion
3.957,-1948853,5,36.7,34.68,4400,Li-ion
3.948,-1894227,6,36.6,69.36,4400,Li-ion
3.957,-2071534,6,37.1,69.36,4400,Li-ion
3.958,-2030641,6,36.8,69.36,4400,Li-ion
4.167,-4028628,7,37.9,104.04,4400,Li-ion
3.952,-1593629,8,36.8,104.04,4400,Li-ion
3.956,-1864625,8,36.7,104.04,4400,Li-ion
4.168,-4029543,9,37.9,138.72,4400,Li-ion
3.974,-2037660,9,36.8,138.72,4400,Li-ion
3.949,-1842042,9,36.8,138.72,4400,Li-ion
4.193,-4034121,11,38.1,208.08,4400,Li-ion
3.973,-1879273,11,36.9,208.08,4400,Li-ion
3.975,-1951600,12,36.9,242.76,4400,Li-ion
3.996,-2030641,12,37.1,242.76,4400,Li-ion
3.985,-1920777,12,36.9,242.76,4400,Li-ion
4.175,-3960879,13,37.8,277.44,4400,Li-ion
3.988,-1882325,14,37,277.44,4400,Li-ion
3.985,-1939088,14,36.9,277.44,4400,Li-ion
4,-2076417,15,37.1,312.12,4400,Li-ion
3.998,-1922608,15,36.9,312.12,4400,Li-ion
4.132,-4012454,15,37.7,312.12,4400,Li-ion
4.022,-2040711,17,37.2,346.8,4400,Li-ion
3.984,-1723939,17,37.1,346.8,4400,Li-ion
3.997,-1842042,18,37,416.16,4400,Li-ion
3.989,-1601258,18,37,416.16,4400,Li-ion
4.042,-2084352,18,37.3,416.16,4400,Li-ion
4.007,-1690064,19,37.1,450.84,4400,Li-ion
4.008,-1879578,20,37.1,450.84,4400,Li-ion
4.229,-3935854,21,38.3,485.52,4400,Li-ion
4.233,-3784792,22,38.6,554.88,4400,Li-ion
4.048,-1672059,23,37.9,554.88,4400,Li-ion
4.042,-1935731,24,37.6,624.24,4400,Li-ion
4.026,-1913148,25,37.6,624.24,4400,Li-ion
3.934,-982361,25,37.5,624.24,4400,Li-ion
3.929,-731201,26,37.5,624.24,4400,Li-ion
3.927,-1113892,26,37.5,624.24,4400,Li-ion
3.907,-1022034,26,37.4,624.24,4400,Li-ion
3.979,-1523743,26,37.4,658.92,4400,Li-ion
4.017,-1941224,26,37.6,658.92,4400,Li-ion
4.008,-1596070,27,37.5,693.6,4400,Li-ion
4.019,-1778870,27,37.5,693.6,4400,Li-ion
4.017,-1791383,27,37.5,693.6,4400,Li-ion
4.219,-3632509,28,38.7,728.28,4400,Li-ion
4.037,-1846925,28,37.7,728.28,4400,Li-ion
4.043,-1831666,28,37.6,728.28,4400,Li-ion
4.026,-1772157,29,37.6,762.96,4400,Li-ion
4.02,-1861268,29,38.2,762.96,4400,Li-ion
4.021,-1739808,29,37.7,762.96,4400,Li-ion
4.022,-1924439,30,37.7,797.64,4400,Li-ion
4.012,-1588746,30,37.7,797.64,4400,Li-ion
4.228,-3633120,30,38.7,797.64,4400,Li-ion
4.058,-1938172,31,37.9,832.32,4400,Li-ion
3.996,-1779481,31,37.9,832.32,4400,Li-ion
4.036,-1810914,31,37.9,832.32,4400,Li-ion
4.025,-1667786,32,37.8,867,4400,Li-ion
4.217,-3585818,32,38.8,867,4400,Li-ion
4.067,-1720277,33,38,901.68,4400,Li-ion
4.055,-1939088,33,37.9,901.68,4400,Li-ion
4.033,-1809083,33,37.8,901.68,4400,Li-ion
4.215,-3524782,34,38.8,936.36,4400,Li-ion
4.231,-3530581,34,38.9,936.36,4400,Li-ion
4.225,-3373720,36,39,1005.72,4400,Li-ion
4.218,-3273317,37,39,1075.08,4400,Li-ion
4.219,-3218691,39,39.2,1109.76,4400,Li-ion
4.04,-1379090,39,39,1109.76,4400,Li-ion
3.997,-1044312,39,38.5,1109.76,4400,Li-ion
3.994,-1091614,40,38.5,1179.12,4400,Li-ion
4.029,-1468506,41,38.4,1179.12,4400,Li-ion
4.016,-1120606,41,38.4,1179.12,4400,Li-ion
3.957,-1104737,42,38.4,1179.12,4400,Li-ion
3.99,-939026,42,38.4,1179.12,4400,Li-ion
3.999,-1004639,42,38.4,1179.12,4400,Li-ion
3.972,-1071472,42,38.4,1213.8,4400,Li-ion
3.993,-1298218,42,38.4,1213.8,4400,Li-ion
3.975,-786438,43,38.4,1213.8,4400,Li-ion
3.989,-1111450,43,38.4,1213.8,4400,Li-ion
4.004,-1345215,43,38.4,1213.8,4400,Li-ion
3.976,-870056,44,38.3,1248.48,4400,Li-ion
3.991,-921936,44,38.3,1248.48,4400,Li-ion
3.97,-1216736,44,38.3,1248.48,4400,Li-ion
4.011,-1241761,45,38.3,1283.16,4400,Li-ion
3.946,-1102600,45,38.3,1283.16,4400,Li-ion
3.964,-1001892,45,38.4,1283.16,4400,Li-ion
3.974,-328064,45,38.4,1283.16,4400,Li-ion
4.054,-1740113,45,38.5,1283.16,4400,Li-ion
4.062,-1759034,45,38.4,1283.16,4400,Li-ion
3.977,-947266,45,38.3,1283.16,4400,Li-ion
3.978,-959778,46,38.4,1317.84,4400,Li-ion
3.98,-875244,46,38.4,1317.84,4400,Li-ion
4.101,-2005006,47,38.3,1352.52,4400,Li-ion
4.084,-1791383,48,38.1,1352.52,4400,Li-ion
4.07,-1697388,48,38,1352.52,4400,Li-ion
4.068,-1647950,49,38,1387.2,4400,Li-ion
3.903,-968628,49,38.3,1387.2,4400,Li-ion
3.989,-1006775,50,38.1,1421.88,4400,Li-ion
4.235,-3217165,50,38.9,1421.88,4400,Li-ion
4.254,-3220827,51,39,1456.56,4400,Li-ion
4.123,-1919251,52,38.4,1456.56,4400,Li-ion
4.088,-1571961,53,38.3,1525.92,4400,Li-ion
4.099,-1745911,53,38.4,1525.92,4400,Li-ion
4.25,-3222048,53,39,1525.92,4400,Li-ion
4.269,-3221743,54,39.2,1560.6,4400,Li-ion
4.275,-3220522,56,39.4,1595.28,4400,Li-ion
4.142,-1899110,57,38.8,1664.64,4400,Li-ion
4.105,-1405945,58,38.7,1664.64,4400,Li-ion
4.127,-1770325,58,38.7,1664.64,4400,Li-ion
4.1,-1549073,59,38.7,1699.32,4400,Li-ion
4.138,-3214113,59,39,1699.32,4400,Li-ion
4.28,-3226625,59,39.4,1699.32,4400,Li-ion
4.278,-3119814,60,39.5,1734,4400,Li-ion
4.281,-3121034,60,39.5,1734,4400,Li-ion
4.285,-3119509,60,39.5,1734,4400,Li-ion
4.28,-3024599,61,39.6,1803.36,4400,Li-ion
4.282,-3013613,62,39.6,1803.36,4400,Li-ion
4.277,-2918703,64,39.6,1838.04,4400,Li-ion
4.281,-2914735,65,39.8,1907.4,4400,Li-ion
4.282,-2818910,65,39.8,1907.4,4400,Li-ion
4.18,-1827699,66,39.4,1942.08,4400,Li-ion
4.165,-1693726,67,39.3,1942.08,4400,Li-ion
4.157,-1655884,67,39.3,1942.08,4400,Li-ion
4.131,-1492920,68,39.3,1976.76,4400,Li-ion
4.12,-1548463,68,39.2,1976.76,4400,Li-ion
4.26,-2802736,68,40,1976.76,4400,Li-ion
4.18,-1828614,69,39.2,2011.44,4400,Li-ion
4.179,-1837464,69,39.1,2011.44,4400,Li-ion
4.173,-1617432,69,39.1,2011.44,4400,Li-ion
4.168,-1725465,70,39.1,2011.44,4400,Li-ion
4.158,-1429444,70,39,2011.44,4400,Li-ion
4.283,-2714540,71,39.6,2080.8,4400,Li-ion
4.28,-2610475,71,39.5,2080.8,4400,Li-ion
4.286,-2612916,72,39.6,2115.48,4400,Li-ion
4.278,-2507020,72,39.5,2115.48,4400,Li-ion
4.185,-1546937,73,39.3,2150.16,4400,Li-ion
4.208,-1737672,73,39.1,2150.16,4400,Li-ion
4.197,-1739808,73,39.1,2150.16,4400,Li-ion
4.19,-1644593,74,39,2184.84,4400,Li-ion
4.177,-1504517,74,39,2184.84,4400,Li-ion
4.214,-1844788,74,39,2184.84,4400,Li-ion
4.216,-1623536,75,39,2219.52,4400,Li-ion
4.205,-1697083,76,39,2219.52,4400,Li-ion
4.195,-1553345,76,39,2219.52,4400,Li-ion
4.284,-2501832,77,39.4,2254.2,4400,Li-ion
4.279,-2305604,77,39.2,2254.2,4400,Li-ion
4.278,-2199708,78,39.1,2288.88,4400,Li-ion
4.285,-2198793,78,39,2288.88,4400,Li-ion
4.289,-2201844,79,39.2,2323.56,4400,Li-ion
4.282,-2091676,80,39.2,2358.24,4400,Li-ion
4.278,-2002259,80,39,2358.24,4400,Li-ion
4.286,-1996156,81,38.9,2392.92,4400,Li-ion
4.28,-1902162,82,38.9,2427.6,4400,Li-ion
4.287,-1896974,83,38.9,2462.28,4400,Li-ion
4.28,-1795655,84,38.9,2496.96,4400,Li-ion
4.294,-1849976,84,38.8,2496.96,4400,Li-ion
4.293,-1812440,85,38.8,2531.64,4400,Li-ion
4.293,-1786500,85,38.9,2531.64,4400,Li-ion
4.294,-1764527,85,38.9,2531.64,4400,Li-ion
4.293,-1739503,86,39,2566.32,4400,Li-ion
4.293,-1715699,86,39,2566.32,4400,Li-ion
4.24,-1232911,87,38.7,2566.32,4400,Li-ion
4.235,-938111,87,38.7,2566.32,4400,Li-ion
4.241,-1274720,87,38.6,2566.32,4400,Li-ion
4.225,-1213684,87,38.6,2601,4400,Li-ion
4.213,-1258240,87,38.6,2601,4400,Li-ion
4.246,-1042176,87,38.6,2601,4400,Li-ion
4.24,-1216736,88,38.6,2601,4400,Li-ion
4.223,-893555,88,38.6,2601,4400,Li-ion
4.226,-1030274,88,38.6,2601,4400,Li-ion
4.227,-985718,88,38.6,2635.68,4400,Li-ion
4.233,-921936,88,38.7,2635.68,4400,Li-ion
4.206,-1168213,88,38.7,2635.68,4400,Li-ion
4.244,-915833,89,38.7,2670.36,4400,Li-ion
4.218,-741272,89,38.7,2670.36,4400,Li-ion
4.252,-1031800,89,38.8,2670.36,4400,Li-ion
4.221,-880737,89,38.8,2670.36,4400,Li-ion
4.25,-1168824,89,38.8,2670.36,4400,Li-ion
4.242,-705261,89,38.7,2670.36,4400,Li-ion
4.227,-1078797,90,38.7,2705.04,4400,Li-ion
4.21,-1268616,90,38.7,2705.04,4400,Li-ion
4.254,-1275330,90,38.7,2705.04,4400,Li-ion
4.26,-1199341,90,38.7,2705.04,4400,Li-ion
4.263,-1221619,90,38.7,2705.04,4400,Li-ion
4.204,-843811,90,38.7,2705.04,4400,Li-ion
4.215,-947266,91,38.7,2739.72,4400,Li-ion
4.196,-626526,91,38.7,2739.72,4400,Li-ion
4.188,-497436,91,38.7,2739.72,4400,Li-ion
4.191,-849609,91,38.7,2739.72,4400,Li-ion
4.255,-1114807,91,38.7,2739.72,4400,Li-ion
4.264,-1400757,91,38.8,2739.72,4400,Li-ion
4.267,-1280213,91,38.8,2739.72,4400,Li-ion
4.251,-966797,91,38.9,2739.72,4400,Li-ion
4.276,-949097,91,38.9,2739.72,4400,Li-ion
4.226,-855103,92,39,2774.4,4400,Li-ion
4.244,-971070,92,39,2774.4,4400,Li-ion
4.249,-863648,92,39,2774.4,4400,Li-ion
4.293,-1370240,92,39,2774.4,4400,Li-ion
4.29,-1098328,92,39.1,2774.4,4400,Li-ion
4.292,-1039429,93,39.1,2809.08,4400,Li-ion
4.278,-1255188,93,39.1,2809.08,4400,Li-ion
4.288,-1243592,93,39,2809.08,4400,Li-ion
4.293,-1234742,93,38.9,2843.76,4400,Li-ion
4.294,-1187134,94,38.8,2843.76,4400,Li-ion
4.294,-1145325,94,38.8,2843.76,4400,Li-ion
4.294,-1101075,94,38.7,2878.44,4400,Li-ion
4.294,-1060791,95,38.5,2878.44,4400,Li-ion
4.294,-1036988,95,38.2,2913.12,4400,Li-ion
4.293,-1020203,95,38.2,2913.12,4400,Li-ion
4.294,-998535,96,38.2,2913.12,4400,Li-ion
4.293,-960999,96,38.1,2947.8,4400,Li-ion
4.294,-928040,96,37.7,2947.8,4400,Li-ion
4.294,-904541,97,37.5,2947.8,4400,Li-ion
4.294,-872803,97,37.4,2982.48,4400,Li-ion
4.294,-849915,97,37.5,2982.48,4400,Li-ion
4.294,-820923,98,37.5,3017.16,4400,Li-ion
4.294,-795899,98,37.4,3017.16,4400,Li-ion
4.295,-768433,98,37.4,3017.16,4400,Li-ion
4.294,-739441,99,37.3,3051.84,4400,Li-ion
4.294,-716248,99,37.3,3051.84,4400,Li-ion
4.294,-715942,99,37.4,3051.84,4400,Li-ion
4.294,-694275,99,37.5,3086.52,4400,Li-ion
4.295,-675354,99,37.3,3086.52,4400,Li-ion
4.294,-658264,99,37.2,3086.52,4400,Li-ion
4.294,-627441,99,37.2,3086.52,4400,Li-ion
4.295,-617676,99,37.1,3121.2,4400,Li-ion
4.294,-607910,100,37.1,3121.2,4400,Li-ion
4.294,399170,100,37.1,3121.2,4400,Li-ion